##Deconvoluted mass spectrum
1000.0 	 1
6980.4 	 0
6980.5 	 3
6980.6 	 5
6980.7 	 7
6980.8 	 9
6980.9 	 12
6981.0 	 14
6981.1 	 16
6981.2 	 18
6981.3 	 20
6981.4 	 23
6981.5 	 27
6981.6 	 31
6981.7 	 47
6981.8 	 53
6981.9 	 59
6982.0 	 65
6982.1 	 93
6982.2 	 103
6982.3 	 112
6982.4 	 120
6982.5 	 129
6982.6 	 137
6982.7 	 145
6982.8 	 153
6982.9 	 161
6983.0 	 169
6983.1 	 177
6983.2 	 183
6983.3 	 188
6983.4 	 191
6983.5 	 195
6983.6 	 198
6983.7 	 202
6983.8 	 206
6983.9 	 210
6984.0 	 225
6984.1 	 231
6984.2 	 240
6984.3 	 249
6984.4 	 259
6984.5 	 268
6984.6 	 278
6984.7 	 276
6984.8 	 286
6984.9 	 296
6985.0 	 307
6985.1 	 323
6985.2 	 339
6985.3 	 355
6985.4 	 371
6985.5 	 387
6985.6 	 404
6985.7 	 419
6985.8 	 434
6985.9 	 447
6986.0 	 456
6986.1 	 466
6986.2 	 476
6986.3 	 487
6986.4 	 497
6986.5 	 506
6986.6 	 511
6986.7 	 517
6986.8 	 518
6986.9 	 507
6987.0 	 496
6987.1 	 485
6987.2 	 472
6987.3 	 459
6987.4 	 446
6987.5 	 434
6987.6 	 421
6987.7 	 407
6987.8 	 392
6987.9 	 376
6988.0 	 361
6988.1 	 326
6988.2 	 310
6988.3 	 295
6988.4 	 280
6988.5 	 264
6988.6 	 251
6988.7 	 241
6988.8 	 232
6988.9 	 223
6989.0 	 214
6989.1 	 204
6989.2 	 195
6989.3 	 185
6989.4 	 175
6989.5 	 167
6989.6 	 163
6989.7 	 159
6989.8 	 155
6989.9 	 151
6990.0 	 147
6990.1 	 143
6990.2 	 140
6990.3 	 138
6990.4 	 134
6990.5 	 129
6990.6 	 124
6990.7 	 120
6990.8 	 114
6990.9 	 110
6991.0 	 105
6991.1 	 100
6991.2 	 97
6991.3 	 94
6991.4 	 90
6991.5 	 86
6991.6 	 82
6991.7 	 78
6991.8 	 74
6991.9 	 70
6992.0 	 66
6992.1 	 61
6992.2 	 57
6992.3 	 54
6992.4 	 50
6992.5 	 47
6992.6 	 44
6992.7 	 40
6992.8 	 37
6992.9 	 34
6993.0 	 30
6993.1 	 25
6993.2 	 23
6993.3 	 22
6993.4 	 20
6993.5 	 19
6993.6 	 18
6993.7 	 16
6993.8 	 15
6993.9 	 14
6994.0 	 12
6994.2 	 0
7113.4 	 0
7113.5 	 18
7113.6 	 19
7113.7 	 64
7113.8 	 82
7113.9 	 100
7114.0 	 118
7114.1 	 162
7114.2 	 120
7114.3 	 131
7114.4 	 142
7114.5 	 162
7114.6 	 195
7114.7 	 228
7114.8 	 261
7114.9 	 318
7115.0 	 353
7115.1 	 518
7115.2 	 569
7115.3 	 617
7115.4 	 662
7115.5 	 757
7115.6 	 976
7115.7 	 1198
7115.8 	 1420
7115.9 	 1641
7116.0 	 1863
7116.1 	 2179
7116.2 	 2631
7116.3 	 3083
7116.4 	 3598
7116.5 	 4260
7116.6 	 4923
7116.7 	 5586
7116.8 	 6238
7116.9 	 6965
7117.0 	 7797
7117.1 	 8627
7117.2 	 9458
7117.3 	 10291
7117.4 	 11128
7117.5 	 11965
7117.6 	 12801
7117.7 	 13592
7117.8 	 14318
7117.9 	 15029
7118.0 	 15737
7118.1 	 16442
7118.2 	 17071
7118.3 	 17546
7118.4 	 18020
7118.5 	 18300
7118.6 	 18251
7118.7 	 18202
7118.8 	 18152
7118.9 	 18103
7119.0 	 18053
7119.1 	 17912
7119.2 	 17588
7119.3 	 17208
7119.4 	 16731
7119.5 	 16255
7119.6 	 15778
7119.7 	 15303
7119.8 	 14831
7119.9 	 14360
7120.0 	 13842
7120.1 	 13258
7120.2 	 12762
7120.3 	 12265
7120.4 	 11766
7120.5 	 11267
7120.6 	 10767
7120.7 	 10267
7120.8 	 9767
7120.9 	 9326
7121.0 	 8981
7121.1 	 8637
7121.2 	 8295
7121.3 	 7953
7121.4 	 7610
7121.5 	 7268
7121.6 	 6927
7121.7 	 6580
7121.8 	 6229
7121.9 	 5894
7122.0 	 5559
7122.1 	 5224
7122.2 	 4885
7122.3 	 4546
7122.4 	 4206
7122.5 	 3867
7122.6 	 3508
7122.7 	 3212
7122.8 	 3011
7122.9 	 2810
7123.0 	 2608
7123.1 	 2405
7123.2 	 2179
7123.3 	 1971
7123.4 	 1774
7123.5 	 1576
7123.6 	 1410
7123.7 	 1322
7123.8 	 1234
7123.9 	 1146
7124.0 	 1058
7124.1 	 978
7124.2 	 914
7124.3 	 851
7124.4 	 787
7124.5 	 740
7124.6 	 732
7124.7 	 724
7124.8 	 716
7124.9 	 714
7125.0 	 722
7125.1 	 731
7125.2 	 746
7125.3 	 761
7125.4 	 769
7125.5 	 757
7125.6 	 746
7125.7 	 732
7125.8 	 714
7125.9 	 697
7126.0 	 679
7126.1 	 663
7126.2 	 652
7126.3 	 638
7126.4 	 618
7126.5 	 462
7126.6 	 445
7126.7 	 428
7126.8 	 412
7126.9 	 501
7127.0 	 478
7127.1 	 454
7127.2 	 428
7127.3 	 405
7127.4 	 382
7127.5 	 358
7127.6 	 335
7127.7 	 312
7127.8 	 289
7127.9 	 266
7128.0 	 243
7128.1 	 67
7128.2 	 64
7128.3 	 60
7128.4 	 57
7128.5 	 53
7128.6 	 182
7128.7 	 173
7128.8 	 164
7128.9 	 157
7129.0 	 156
7129.1 	 145
7129.2 	 152
7129.3 	 160
7129.4 	 168
7129.5 	 176
7129.6 	 183
7129.7 	 191
7129.8 	 198
7129.9 	 204
7130.0 	 210
7130.1 	 175
7130.2 	 180
7130.3 	 184
7135.4 	 0
7139.0 	 0
9100.0 	 1
##ESI mass spectrum
##Adduct mass = -1.0079
697.2 	 21
697.3 	 54
697.4 	 78
697.5 	 88
697.6 	 107
697.7 	 133
697.8 	 142
697.9 	 106
698.0 	 66
698.1 	 41
698.2 	 36
698.3 	 25
698.4 	 11
700.8 	 14
700.9 	 17
701.0 	 12
710.4 	 27
710.5 	 33
710.6 	 116
710.7 	 280
710.8 	 456
710.9 	 470
711.0 	 407
711.1 	 390
711.2 	 423
711.3 	 390
711.4 	 233
711.5 	 96
711.6 	 37
711.7 	 44
711.8 	 33
711.9 	 17
712.2 	 13
712.3 	 14
712.7 	 15
712.8 	 16
713.2 	 14
713.3 	 19
713.4 	 11
715.2 	 11
715.3 	 18
715.4 	 14
753.3 	 12
756.1 	 3
756.2 	 20
756.3 	 37
756.4 	 31
756.5 	 11
756.7 	 3
756.8 	 6
756.9 	 4
762.4 	 2
762.5 	 4
762.6 	 2
774.6 	 2
774.7 	 22
774.8 	 58
774.9 	 86
775.0 	 93
775.1 	 153
775.2 	 258
775.3 	 320
775.4 	 235
775.5 	 129
775.6 	 78
775.7 	 77
775.8 	 55
775.9 	 23
776.0 	 3
776.6 	 4
776.7 	 21
776.8 	 44
776.9 	 46
777.0 	 37
777.1 	 35
777.2 	 42
777.3 	 40
777.4 	 21
777.5 	 4
789.4 	 22
789.6 	 156
789.7 	 1772
789.8 	 5269
789.9 	 8829
790.0 	 10435
790.1 	 9579
790.2 	 7248
790.3 	 4553
790.4 	 2044
790.5 	 717
790.6 	 376
790.7 	 539
790.8 	 462
790.9 	 305
791.0 	 159
791.1 	 113
791.2 	 165
791.3 	 205
791.4 	 184
791.5 	 141
791.6 	 145
791.7 	 191
791.8 	 208
791.9 	 160
792.0 	 112
792.1 	 120
792.2 	 176
792.3 	 212
792.4 	 179
792.5 	 133
792.6 	 126
792.7 	 153
792.8 	 149
792.9 	 94
793.0 	 43
793.1 	 29
793.2 	 46
793.3 	 51
793.4 	 41
793.5 	 29
793.6 	 35
793.7 	 49
793.8 	 51
793.9 	 28
794.2 	 27
794.3 	 37
794.4 	 21
795.2 	 11
795.3 	 17
795.7 	 38
795.8 	 67
795.9 	 61
796.0 	 40
796.1 	 23
796.2 	 19
796.3 	 13
823.8 	 13
847.7 	 18
847.8 	 21
850.6 	 16
850.7 	 26
850.8 	 28
850.9 	 18
871.7 	 11
871.8 	 28
871.9 	 41
872.0 	 45
872.1 	 60
872.2 	 81
872.3 	 88
872.4 	 56
872.5 	 21
874.3 	 13
888.2 	 16
888.3 	 86
888.4 	 331
888.5 	 535
888.6 	 2491
888.7 	 5797
888.8 	 8212
888.9 	 6470
889.0 	 3511
889.1 	 1624
889.2 	 1327
889.3 	 917
889.4 	 512
889.5 	 236
889.6 	 139
889.7 	 163
889.8 	 137
889.9 	 81
890.0 	 35
890.1 	 20
890.2 	 35
890.3 	 45
890.4 	 51
890.5 	 50
890.6 	 55
890.7 	 63
890.8 	 69
890.9 	 56
891.0 	 36
891.1 	 59
891.2 	 132
891.3 	 198
891.4 	 171
891.5 	 111
891.6 	 94
891.7 	 123
891.8 	 123
891.9 	 69
892.0 	 22
892.2 	 11
892.7 	 16
892.8 	 24
892.9 	 16
893.2 	 11
893.3 	 16
895.2 	 14
895.3 	 23
895.4 	 17
926.4 	 11
996.7 	 12
996.8 	 11
1015.2 	 17
1015.3 	 28
1015.4 	 42
1015.5 	 60
1015.6 	 114
1015.7 	 185
1015.8 	 234
1015.9 	 204
1016.0 	 151
1016.1 	 115
1016.2 	 104
1016.3 	 85
1016.4 	 53
1016.5 	 23
1018.8 	 14
1018.9 	 12
1019.2 	 16
1019.3 	 19
1019.4 	 13
1019.8 	 13
1184.8 	 22
1184.9 	 31
1185.0 	 35
1185.1 	 52
1185.2 	 82
1185.3 	 102
1185.4 	 84
1185.5 	 62
1185.6 	 62
1185.7 	 76
1185.8 	 72
1185.9 	 45
1186.0 	 21
1186.1 	 11
1186.2 	 12
1189.1 	 13
1189.2 	 16
1189.3 	 14
1422.2 	 11
1422.3 	 13
1422.6 	 12
1422.7 	 16
1422.8 	 14
