##Deconvoluted mass spectrum
1000.0 	 1
1548.5 	 0
1548.7 	 42
1548.8 	 32
1548.9 	 20
1549.0 	 9
1549.1 	 7
1549.8 	 11
1549.9 	 22
1550.0 	 34
1550.1 	 75
1550.2 	 121
1550.3 	 178
1550.4 	 237
1550.5 	 273
1550.6 	 306
1550.7 	 277
1550.8 	 236
1550.9 	 188
1551.0 	 138
1551.1 	 109
1551.2 	 85
1551.3 	 81
1551.4 	 80
1551.5 	 71
1551.6 	 60
1551.7 	 44
1551.8 	 27
1551.9 	 16
1552.0 	 6
1552.1 	 0
4643.3 	 0
4643.5 	 5
4643.6 	 6
4643.7 	 6
4643.8 	 7
4643.9 	 7
4644.0 	 8
4644.1 	 9
4644.2 	 11
4644.3 	 13
4644.4 	 15
4644.5 	 17
4644.6 	 19
4644.7 	 22
4644.8 	 24
4644.9 	 27
4645.0 	 30
4645.1 	 33
4645.2 	 36
4645.3 	 38
4645.4 	 40
4645.5 	 42
4651.3 	 0
6368.4 	 0
6368.5 	 4
6368.6 	 8
6368.7 	 11
6368.8 	 15
6368.9 	 29
6369.0 	 41
6369.1 	 54
6369.2 	 66
6369.3 	 78
6369.4 	 106
6369.5 	 121
6369.6 	 137
6369.7 	 155
6369.8 	 176
6369.9 	 198
6370.0 	 219
6370.1 	 241
6370.2 	 265
6370.3 	 288
6370.4 	 312
6370.5 	 334
6370.6 	 353
6370.7 	 372
6370.8 	 391
6370.9 	 411
6371.0 	 431
6371.1 	 451
6371.2 	 470
6371.3 	 484
6371.4 	 492
6371.5 	 499
6371.6 	 506
6371.7 	 512
6371.8 	 518
6371.9 	 525
6372.0 	 531
6372.1 	 541
6372.2 	 556
6372.3 	 568
6372.4 	 580
6372.5 	 593
6372.6 	 605
6372.7 	 617
6372.8 	 630
6372.9 	 644
6373.0 	 662
6373.1 	 684
6373.2 	 706
6373.3 	 728
6373.4 	 750
6373.5 	 772
6373.6 	 769
6373.7 	 791
6373.8 	 806
6373.9 	 821
6374.0 	 833
6374.1 	 846
6374.2 	 858
6374.3 	 870
6374.4 	 882
6374.5 	 886
6374.6 	 874
6374.7 	 863
6374.8 	 847
6374.9 	 817
6375.0 	 787
6375.1 	 757
6375.2 	 727
6375.3 	 696
6375.4 	 665
6375.5 	 633
6375.6 	 602
6375.7 	 569
6375.8 	 532
6375.9 	 495
6376.0 	 458
6376.1 	 425
6376.2 	 399
6376.3 	 373
6376.4 	 347
6376.5 	 321
6376.6 	 296
6376.7 	 274
6376.8 	 252
6376.9 	 234
6377.0 	 224
6377.1 	 212
6377.2 	 201
6377.3 	 190
6377.4 	 179
6377.5 	 170
6377.6 	 167
6377.7 	 163
6377.8 	 158
6377.9 	 153
6378.0 	 149
6378.1 	 144
6378.2 	 139
6378.3 	 135
6378.4 	 130
6378.5 	 124
6378.6 	 118
6378.7 	 112
6378.8 	 106
6378.9 	 101
6379.0 	 95
6379.1 	 89
6379.2 	 83
6379.3 	 77
6379.4 	 72
6379.5 	 67
6379.6 	 61
6379.7 	 56
6379.8 	 51
6379.9 	 45
6380.0 	 40
6380.1 	 33
6380.2 	 29
6380.3 	 26
6380.4 	 24
6380.5 	 21
6380.6 	 18
6380.7 	 15
6380.8 	 12
6380.9 	 10
6381.0 	 7
6381.2 	 0
6501.6 	 0
6501.7 	 157
6501.8 	 203
6501.9 	 248
6502.0 	 294
6502.1 	 361
6502.2 	 213
6502.3 	 268
6502.4 	 296
6502.5 	 342
6502.6 	 423
6502.7 	 503
6502.8 	 583
6502.9 	 663
6503.0 	 742
6503.1 	 1239
6503.2 	 1364
6503.3 	 1505
6503.4 	 1674
6503.5 	 1902
6503.6 	 2300
6503.7 	 2677
6503.8 	 3066
6503.9 	 3467
6504.0 	 3869
6504.1 	 4481
6504.2 	 5451
6504.3 	 6422
6504.4 	 7432
6504.5 	 8538
6504.6 	 9643
6504.7 	 10749
6504.8 	 11854
6504.9 	 13071
6505.0 	 14480
6505.1 	 15890
6505.2 	 17280
6505.3 	 18593
6505.4 	 19797
6505.5 	 21001
6505.6 	 22204
6505.7 	 23236
6505.8 	 23973
6505.9 	 24693
6506.0 	 25394
6506.1 	 26096
6506.2 	 26738
6506.3 	 27226
6506.4 	 27715
6506.5 	 27733
6506.6 	 26944
6506.7 	 26159
6506.8 	 25374
6506.9 	 24588
6507.0 	 23803
6507.1 	 22982
6507.2 	 22070
6507.3 	 21097
6507.4 	 20016
6507.5 	 18935
6507.6 	 17854
6507.7 	 16775
6507.8 	 15699
6507.9 	 14623
6508.0 	 13538
6508.1 	 12588
6508.2 	 11946
6508.3 	 11303
6508.4 	 10659
6508.5 	 10015
6508.6 	 9371
6508.7 	 8723
6508.8 	 8068
6508.9 	 7583
6509.0 	 7382
6509.1 	 7182
6509.2 	 6980
6509.3 	 6779
6509.4 	 6579
6509.5 	 6383
6509.6 	 6188
6509.7 	 5965
6509.8 	 5688
6509.9 	 5388
6510.0 	 5089
6510.1 	 4764
6510.2 	 4483
6510.3 	 4202
6510.4 	 3921
6510.5 	 3641
6510.6 	 3364
6510.7 	 3108
6510.8 	 2908
6510.9 	 2715
6511.0 	 2521
6511.1 	 2327
6511.2 	 2114
6511.3 	 1927
6511.4 	 1751
6511.5 	 1574
6511.6 	 1422
6511.7 	 1330
6511.8 	 1238
6511.9 	 1146
6512.0 	 1054
6512.1 	 973
6512.2 	 869
6512.3 	 808
6512.4 	 747
6512.5 	 702
6512.6 	 732
6512.7 	 725
6512.8 	 718
6512.9 	 720
6513.0 	 735
6513.1 	 750
6513.2 	 765
6513.3 	 780
6513.4 	 789
6513.5 	 785
6513.6 	 764
6513.7 	 758
6513.8 	 746
6513.9 	 734
6514.0 	 721
6514.1 	 709
6514.2 	 697
6514.3 	 683
6514.4 	 663
6514.5 	 382
6514.6 	 367
6514.7 	 351
6514.8 	 336
6514.9 	 529
6515.0 	 502
6515.1 	 474
6515.2 	 447
6515.3 	 420
6515.4 	 395
6515.5 	 370
6515.6 	 345
6515.7 	 320
6515.8 	 294
6515.9 	 269
6516.0 	 244
6516.1 	 77
6516.2 	 75
6516.3 	 72
6516.4 	 70
6516.5 	 67
6516.6 	 65
6516.7 	 62
6516.8 	 60
6516.9 	 60
6517.0 	 64
6517.1 	 69
6517.2 	 74
6517.3 	 78
6517.4 	 83
6517.5 	 88
6517.6 	 92
6517.7 	 96
6517.8 	 99
6517.9 	 102
6518.0 	 104
6518.1 	 107
6518.2 	 110
6518.3 	 112
6518.4 	 115
6518.5 	 116
6518.6 	 112
6518.7 	 108
6518.8 	 258
6518.9 	 150
6519.0 	 146
6519.1 	 142
6519.2 	 138
6519.3 	 219
6519.4 	 210
6519.5 	 201
6519.6 	 192
6519.7 	 183
6519.8 	 173
6519.9 	 163
6520.0 	 153
6520.1 	 145
6520.2 	 139
6520.3 	 133
6520.4 	 127
6520.5 	 121
6520.6 	 116
6520.7 	 114
6520.8 	 113
6520.9 	 112
6521.0 	 115
6521.1 	 117
6521.2 	 119
6521.3 	 121
6521.4 	 123
6521.5 	 126
6521.6 	 133
6521.7 	 139
6521.8 	 144
6521.9 	 149
6522.0 	 154
6522.1 	 160
6522.2 	 165
6522.3 	 170
6522.4 	 176
6522.5 	 179
6522.6 	 180
6522.7 	 182
6522.8 	 183
6522.9 	 184
6523.0 	 186
6523.1 	 187
6523.2 	 188
6523.3 	 187
6523.4 	 183
6523.5 	 178
6523.6 	 173
6523.7 	 169
6523.8 	 164
6523.9 	 159
6524.0 	 155
6524.1 	 153
6524.2 	 155
6524.3 	 156
6524.4 	 158
6524.5 	 159
6524.6 	 160
6524.7 	 162
6524.8 	 163
6524.9 	 168
6525.0 	 179
6525.1 	 191
6525.2 	 206
6525.3 	 221
6525.4 	 235
6525.5 	 266
6525.6 	 282
6525.7 	 300
6525.8 	 318
6525.9 	 337
6526.0 	 357
6526.1 	 379
6526.2 	 401
6526.3 	 438
6526.4 	 460
6526.5 	 477
6526.6 	 486
6526.7 	 495
6526.8 	 504
6526.9 	 511
6527.0 	 516
6527.1 	 520
6527.2 	 525
6527.3 	 526
6527.4 	 522
6527.5 	 518
6527.6 	 514
6527.7 	 511
6527.8 	 506
6527.9 	 495
6528.0 	 484
6528.1 	 460
6528.2 	 452
6528.3 	 444
6528.4 	 436
6528.5 	 428
6528.6 	 420
6528.7 	 412
6528.8 	 404
6528.9 	 397
6529.0 	 393
6529.1 	 388
6529.2 	 383
6529.3 	 378
6529.4 	 373
6529.5 	 368
6529.6 	 364
6529.7 	 360
6529.8 	 353
6529.9 	 346
6530.0 	 340
6530.1 	 333
6530.2 	 326
6530.3 	 320
6530.4 	 286
6530.5 	 279
6530.6 	 269
6530.7 	 259
6530.8 	 250
6530.9 	 239
6531.0 	 230
6531.1 	 220
6531.2 	 210
6531.3 	 200
6531.4 	 189
6531.5 	 177
6531.6 	 164
6531.7 	 151
6531.8 	 138
6531.9 	 126
6532.0 	 113
6532.1 	 103
6532.2 	 96
6532.3 	 89
6532.4 	 81
6532.5 	 74
6532.6 	 66
6532.7 	 58
6532.8 	 51
6532.9 	 45
6533.0 	 43
6533.1 	 41
6533.2 	 40
6533.3 	 42
6533.4 	 44
6533.5 	 46
6533.6 	 48
6533.7 	 28
6533.8 	 30
6533.9 	 31
6534.0 	 33
6534.1 	 34
6534.2 	 35
6534.3 	 37
6534.4 	 38
6534.5 	 38
6534.6 	 37
6534.7 	 36
6534.8 	 35
6534.9 	 34
6535.0 	 32
6535.1 	 31
6535.2 	 30
6535.4 	 0
6535.5 	 13
6535.6 	 12
6535.7 	 12
6535.8 	 11
6535.9 	 11
6536.0 	 12
6536.1 	 14
6536.2 	 15
6536.3 	 16
6536.4 	 17
6536.5 	 18
6536.6 	 19
6536.7 	 20
6536.9 	 0
6553.8 	 0
6553.9 	 2
6554.0 	 2
6554.1 	 2
6554.2 	 2
6554.3 	 2
6554.4 	 2
6554.5 	 2
6554.6 	 2
6554.7 	 2
6554.8 	 2
6554.9 	 3
6555.0 	 3
6555.1 	 4
6555.2 	 4
6555.3 	 10
6555.4 	 12
6555.5 	 13
6555.6 	 15
6555.7 	 17
6555.8 	 20
6555.9 	 22
6556.0 	 25
6556.1 	 30
6556.2 	 40
6556.3 	 50
6556.4 	 60
6556.5 	 70
6556.6 	 82
6556.7 	 97
6556.8 	 112
6556.9 	 128
6557.0 	 148
6557.1 	 168
6557.2 	 188
6557.3 	 208
6557.4 	 227
6557.5 	 248
6557.6 	 270
6557.7 	 290
6557.8 	 307
6557.9 	 324
6558.0 	 342
6558.1 	 359
6558.2 	 376
6558.3 	 394
6558.4 	 410
6558.5 	 418
6558.6 	 416
6558.7 	 413
6558.8 	 411
6558.9 	 409
6559.0 	 407
6559.1 	 404
6559.2 	 402
6559.3 	 395
6559.4 	 379
6559.5 	 363
6559.6 	 347
6559.7 	 331
6559.8 	 315
6559.9 	 299
6560.0 	 283
6560.1 	 269
6560.2 	 257
6560.3 	 244
6560.4 	 231
6560.5 	 218
6560.6 	 204
6560.7 	 191
6560.8 	 178
6560.9 	 167
6561.0 	 160
6561.1 	 154
6561.2 	 151
6561.3 	 147
6561.4 	 143
6561.5 	 139
6561.6 	 136
6561.7 	 132
6561.8 	 127
6561.9 	 122
6562.0 	 118
6562.1 	 116
6562.2 	 114
6562.3 	 112
6562.4 	 111
6562.5 	 109
6562.6 	 107
6562.7 	 105
6562.8 	 103
6562.9 	 100
6563.0 	 96
6563.1 	 92
6563.2 	 88
6563.3 	 84
6563.4 	 80
6563.5 	 76
6563.6 	 73
6563.7 	 69
6563.8 	 65
6563.9 	 60
6564.0 	 55
6564.1 	 48
6564.2 	 44
6564.3 	 40
6564.4 	 36
6564.5 	 33
6564.6 	 29
6564.7 	 25
6564.8 	 23
6564.9 	 20
6565.0 	 18
6565.1 	 15
6565.2 	 12
6565.3 	 10
6565.4 	 7
6565.5 	 5
6565.7 	 0
7955.2 	 0
7963.2 	 0
7963.3 	 15
7963.4 	 16
7963.5 	 16
7963.6 	 16
7963.7 	 16
7964.7 	 125
7964.8 	 121
7964.9 	 117
7965.0 	 113
7965.1 	 109
7965.2 	 106
7965.3 	 110
7965.4 	 113
7965.5 	 116
7965.6 	 119
7965.7 	 122
7965.8 	 126
7965.9 	 129
7966.0 	 132
7966.1 	 135
7966.2 	 138
7966.3 	 141
7966.4 	 142
7966.5 	 144
7966.6 	 145
7966.7 	 146
7966.8 	 148
7971.0 	 43
7971.1 	 43
7971.2 	 43
7971.3 	 44
7971.4 	 45
7971.5 	 47
7971.6 	 49
7971.7 	 52
7971.8 	 54
7971.9 	 56
7972.0 	 59
7972.1 	 61
7972.2 	 63
7972.3 	 65
7972.4 	 63
7972.5 	 61
7972.6 	 60
7972.7 	 58
7972.8 	 57
7972.9 	 55
7973.0 	 54
7973.1 	 52
7973.2 	 50
7973.3 	 48
7973.4 	 46
7973.5 	 44
7973.6 	 42
7973.7 	 39
7973.8 	 37
7973.9 	 35
7974.0 	 33
7974.1 	 31
7974.2 	 31
7974.3 	 31
7974.4 	 31
7974.5 	 30
7974.6 	 30
7974.7 	 30
7974.8 	 30
7974.9 	 30
7975.0 	 30
7975.1 	 32
7975.2 	 33
7975.3 	 34
7975.4 	 36
7975.5 	 37
7975.6 	 38
7975.7 	 40
7975.8 	 41
7975.9 	 42
7976.0 	 42
7976.1 	 42
7976.2 	 42
7976.3 	 42
7976.4 	 42
7976.5 	 42
7976.6 	 42
7976.7 	 42
7976.8 	 41
7976.9 	 39
7977.0 	 37
7977.1 	 35
7977.2 	 33
7977.3 	 31
7977.4 	 29
7977.5 	 27
7977.6 	 24
7977.8 	 0
8489.8 	 0
8489.9 	 4
8490.0 	 5
8490.1 	 6
8490.2 	 7
8490.3 	 8
8490.4 	 9
8490.5 	 10
8490.6 	 10
8490.7 	 11
8490.8 	 12
8490.9 	 13
8491.0 	 14
8491.1 	 15
8491.2 	 15
8491.3 	 16
8491.4 	 17
8491.5 	 17
8491.6 	 18
8491.7 	 18
8491.8 	 19
8491.9 	 20
8492.0 	 20
8492.1 	 21
8492.2 	 24
8492.3 	 28
8492.4 	 31
8492.5 	 34
8492.6 	 37
8492.7 	 40
8492.8 	 43
8492.9 	 46
8493.0 	 49
8493.1 	 52
8493.2 	 56
8493.3 	 60
8493.4 	 64
8493.5 	 68
8493.6 	 72
8493.7 	 76
8493.8 	 81
8493.9 	 85
8494.0 	 89
8494.1 	 93
8494.2 	 97
8494.3 	 101
8494.4 	 103
8494.5 	 104
8494.6 	 106
8494.7 	 107
8494.8 	 109
8494.9 	 110
8495.0 	 112
8495.1 	 114
8495.2 	 115
8495.3 	 117
8495.4 	 117
8495.5 	 113
8495.6 	 108
8495.7 	 103
8495.8 	 98
8495.9 	 94
8496.0 	 89
8496.1 	 84
8496.2 	 80
8496.3 	 75
8496.4 	 70
8496.5 	 65
8496.6 	 61
8496.7 	 56
8496.8 	 51
8496.9 	 46
8497.0 	 41
8497.1 	 36
8497.2 	 32
8497.3 	 27
8497.4 	 22
8497.5 	 17
8497.7 	 0
8500.0 	 1
##ESI mass spectrum
##Adduct mass = -1.0079
649.2 	 21
649.3 	 37
649.4 	 32
649.5 	 22
649.6 	 44
649.7 	 90
649.8 	 113
649.9 	 77
650.0 	 32
685.2 	 16
685.3 	 30
685.4 	 25
685.7 	 20
685.8 	 21
694.2 	 23
694.3 	 30
694.4 	 16
705.8 	 2
706.6 	 3
706.7 	 35
706.8 	 98
706.9 	 161
707.0 	 188
707.1 	 259
707.2 	 372
707.3 	 454
707.4 	 368
707.5 	 233
707.6 	 136
707.7 	 106
707.8 	 69
707.9 	 30
708.0 	 5
708.6 	 4
708.7 	 19
708.8 	 30
708.9 	 19
709.0 	 4
709.2 	 2
709.3 	 4
709.4 	 2
721.4 	 72
721.6 	 493
721.7 	 2592
721.8 	 5910
721.9 	 7851
722.0 	 7854
722.1 	 6700
722.2 	 5373
722.3 	 3810
722.4 	 1971
722.5 	 794
722.6 	 388
722.7 	 488
722.8 	 418
722.9 	 278
723.0 	 149
723.1 	 106
723.2 	 141
723.3 	 155
723.4 	 119
723.5 	 73
723.6 	 66
723.7 	 97
723.8 	 124
723.9 	 118
724.0 	 101
724.1 	 116
724.2 	 165
724.3 	 196
724.4 	 159
724.5 	 114
724.6 	 97
724.7 	 95
724.8 	 64
724.9 	 24
725.2 	 11
725.3 	 21
725.4 	 17
725.5 	 6
725.7 	 8
725.8 	 15
725.9 	 10
726.0 	 2
726.2 	 4
726.3 	 7
726.4 	 4
727.2 	 2
727.3 	 2
727.4 	 7
727.5 	 22
727.6 	 81
727.7 	 158
727.8 	 206
727.9 	 166
728.0 	 110
728.1 	 83
728.2 	 82
728.3 	 61
728.4 	 26
728.5 	 3
731.3 	 2
735.2 	 7
735.3 	 11
735.4 	 7
770.8 	 4
770.9 	 14
771.0 	 21
771.1 	 55
771.2 	 101
771.3 	 118
771.4 	 66
771.5 	 13
772.9 	 5
773.0 	 8
773.1 	 20
773.2 	 37
773.3 	 50
773.4 	 30
773.5 	 7
773.9 	 11
774.0 	 36
774.1 	 128
774.2 	 246
774.3 	 311
774.4 	 230
774.5 	 130
774.6 	 81
774.7 	 80
774.8 	 58
774.9 	 24
775.0 	 4
776.2 	 8
776.3 	 12
776.4 	 8
780.7 	 3
780.8 	 5
780.9 	 3
793.6 	 3
793.7 	 15
793.8 	 23
793.9 	 15
794.0 	 3
795.1 	 8
795.2 	 76
795.3 	 190
795.4 	 268
795.5 	 283
795.6 	 340
795.7 	 439
795.8 	 464
795.9 	 301
796.0 	 125
796.1 	 37
796.2 	 35
796.3 	 24
796.4 	 10
796.5 	 2
797.4 	 4
797.5 	 14
797.6 	 32
797.7 	 43
797.8 	 38
797.9 	 17
798.0 	 2
811.7 	 37
811.8 	 176
811.9 	 744
812.0 	 1666
812.1 	 7133
812.2 	 15029
812.3 	 19182
812.4 	 13112
812.5 	 5567
812.6 	 1747
812.7 	 1797
812.8 	 1260
812.9 	 749
813.0 	 380
813.1 	 253
813.2 	 297
813.3 	 262
813.4 	 165
813.5 	 78
813.6 	 58
813.7 	 95
813.8 	 117
813.9 	 87
814.0 	 48
814.1 	 41
814.2 	 64
814.3 	 79
814.4 	 65
814.5 	 33
814.6 	 59
814.7 	 163
814.8 	 283
814.9 	 299
815.0 	 246
815.1 	 206
815.2 	 206
815.3 	 186
815.4 	 108
815.5 	 34
815.6 	 8
815.7 	 28
815.8 	 39
815.9 	 29
816.0 	 17
816.1 	 16
816.2 	 28
816.3 	 35
816.4 	 23
816.5 	 6
816.6 	 2
816.7 	 15
816.8 	 22
816.9 	 13
817.0 	 3
818.4 	 5
818.5 	 13
818.6 	 80
818.7 	 186
818.8 	 256
818.9 	 195
819.0 	 102
819.1 	 47
819.2 	 41
819.3 	 27
819.4 	 12
819.5 	 2
883.8 	 15
884.7 	 44
884.8 	 65
884.9 	 51
885.0 	 31
885.1 	 30
885.2 	 42
885.3 	 42
885.4 	 23
908.9 	 15
909.0 	 16
909.1 	 32
909.2 	 55
909.3 	 66
909.4 	 47
909.5 	 26
927.8 	 33
927.9 	 67
928.0 	 75
928.1 	 250
928.2 	 597
928.3 	 944
928.4 	 916
928.5 	 716
928.6 	 558
928.7 	 511
928.8 	 410
928.9 	 238
929.0 	 100
929.1 	 41
929.2 	 48
929.3 	 43
929.4 	 30
929.5 	 18
931.2 	 15
931.3 	 29
931.4 	 30
931.5 	 27
931.6 	 35
931.7 	 44
931.8 	 44
931.9 	 28
1082.7 	 28
1082.8 	 66
1082.9 	 102
1083.0 	 125
1083.1 	 161
1083.2 	 195
1083.3 	 210
1083.4 	 163
1083.5 	 108
1083.6 	 80
1083.7 	 86
1083.8 	 80
1083.9 	 50
1084.0 	 27
1084.1 	 20
1084.2 	 19
1086.7 	 16
1086.8 	 24
1086.9 	 21
1087.0 	 15
1299.7 	 20
1299.8 	 23
1299.9 	 20
1300.0 	 15
1300.1 	 16
1300.2 	 20
1300.3 	 25
1300.4 	 26
1300.5 	 24
1300.6 	 18
