##Deconvoluted mass spectrum
1000.0 	 1
4767.7 	 0
4767.8 	 25
4767.9 	 30
4768.0 	 35
4768.1 	 40
4768.2 	 45
4768.3 	 50
4768.4 	 54
4768.5 	 58
4768.6 	 60
4768.7 	 62
4768.8 	 64
4768.9 	 66
4769.0 	 69
4769.1 	 71
4769.2 	 70
4769.3 	 67
4769.4 	 63
4769.5 	 59
4769.6 	 56
4769.7 	 52
4769.8 	 48
4769.9 	 44
4770.0 	 40
4770.1 	 35
4770.2 	 31
4770.3 	 26
4770.4 	 22
4770.5 	 17
4770.6 	 15
4770.7 	 15
4770.8 	 14
4770.9 	 14
4771.7 	 12
4771.8 	 11
4771.9 	 11
4772.0 	 11
4772.1 	 12
4772.2 	 13
4772.3 	 14
4772.4 	 15
4772.5 	 16
4772.6 	 16
4772.7 	 17
4772.8 	 16
4772.9 	 15
4773.0 	 14
4773.1 	 13
4773.2 	 12
4773.3 	 12
4773.5 	 0
5428.5 	 0
5428.6 	 15
5428.7 	 23
5428.8 	 32
5428.9 	 40
5429.0 	 49
5429.1 	 58
5429.2 	 66
5429.3 	 78
5429.4 	 92
5429.5 	 107
5429.6 	 121
5429.7 	 199
5429.8 	 223
5429.9 	 247
5430.0 	 270
5430.1 	 294
5430.2 	 317
5430.3 	 340
5430.4 	 364
5430.5 	 386
5430.6 	 405
5430.7 	 419
5430.8 	 426
5430.9 	 432
5431.0 	 439
5431.1 	 446
5431.2 	 452
5431.3 	 470
5431.4 	 470
5431.5 	 468
5431.6 	 465
5431.7 	 463
5431.8 	 460
5431.9 	 457
5432.0 	 454
5432.1 	 454
5432.2 	 461
5432.3 	 467
5432.4 	 473
5432.5 	 479
5432.6 	 485
5432.7 	 491
5432.8 	 499
5432.9 	 510
5433.0 	 523
5433.1 	 526
5433.2 	 540
5433.3 	 554
5433.4 	 568
5433.5 	 580
5433.6 	 589
5433.7 	 596
5433.8 	 600
5433.9 	 602
5434.0 	 606
5434.1 	 609
5434.2 	 608
5434.3 	 603
5434.4 	 598
5434.5 	 585
5434.6 	 560
5434.7 	 535
5434.8 	 510
5434.9 	 486
5435.0 	 462
5435.1 	 438
5435.2 	 414
5435.3 	 389
5435.4 	 362
5435.5 	 335
5435.6 	 311
5435.7 	 289
5435.8 	 268
5435.9 	 246
5436.0 	 224
5436.1 	 206
5436.2 	 192
5436.3 	 181
5436.4 	 173
5436.5 	 165
5436.6 	 157
5436.7 	 149
5436.8 	 141
5436.9 	 136
5437.0 	 136
5437.1 	 136
5437.2 	 136
5437.3 	 135
5437.4 	 135
5437.5 	 134
5437.6 	 134
5437.7 	 132
5437.8 	 128
5437.9 	 124
5438.0 	 120
5438.1 	 116
5438.2 	 112
5438.3 	 108
5438.4 	 85
5438.5 	 82
5438.6 	 77
5438.7 	 72
5438.8 	 66
5438.9 	 61
5439.0 	 56
5439.1 	 51
5439.2 	 45
5439.4 	 0
5561.6 	 0
5561.7 	 32
5561.8 	 38
5561.9 	 44
5562.0 	 50
5562.1 	 56
5562.2 	 62
5562.3 	 68
5562.4 	 74
5562.5 	 83
5562.6 	 98
5562.7 	 112
5562.8 	 126
5562.9 	 140
5563.0 	 222
5563.1 	 259
5563.2 	 296
5563.3 	 386
5563.4 	 474
5563.5 	 561
5563.6 	 673
5563.7 	 337
5563.8 	 401
5563.9 	 465
5564.0 	 528
5564.1 	 589
5564.2 	 650
5564.3 	 710
5564.4 	 777
5564.5 	 1752
5564.6 	 1881
5564.7 	 2010
5564.8 	 2138
5564.9 	 2459
5565.0 	 3110
5565.1 	 3808
5565.2 	 4561
5565.3 	 5315
5565.4 	 6069
5565.5 	 6823
5565.6 	 7578
5565.7 	 8411
5565.8 	 9345
5565.9 	 10292
5566.0 	 11239
5566.1 	 12184
5566.2 	 13128
5566.3 	 14068
5566.4 	 15005
5566.5 	 15660
5566.6 	 15847
5566.7 	 16032
5566.8 	 16216
5566.9 	 16390
5567.0 	 16554
5567.1 	 16719
5567.2 	 16770
5567.3 	 16493
5567.4 	 15896
5567.5 	 15298
5567.6 	 14701
5567.7 	 14097
5567.8 	 13506
5567.9 	 12903
5568.0 	 12287
5568.1 	 11645
5568.2 	 10954
5568.3 	 10262
5568.4 	 9571
5568.5 	 8880
5568.6 	 8231
5568.7 	 7637
5568.8 	 7047
5568.9 	 6547
5569.0 	 6204
5569.1 	 5858
5569.2 	 5511
5569.3 	 5207
5569.4 	 4955
5569.5 	 4704
5569.6 	 4454
5569.7 	 4231
5569.8 	 4056
5569.9 	 3881
5570.0 	 3695
5570.1 	 3490
5570.2 	 3297
5570.3 	 3103
5570.4 	 2910
5570.5 	 2730
5570.6 	 2574
5570.7 	 2414
5570.8 	 2252
5570.9 	 2090
5571.0 	 1927
5571.1 	 1749
5571.2 	 1591
5571.3 	 1451
5571.4 	 1347
5571.5 	 1248
5571.6 	 1149
5571.7 	 1050
5571.8 	 950
5571.9 	 851
5572.0 	 752
5572.1 	 679
5572.2 	 647
5572.3 	 616
5572.4 	 584
5572.5 	 553
5572.6 	 521
5572.7 	 490
5572.8 	 463
5572.9 	 454
5573.0 	 466
5573.1 	 479
5573.2 	 491
5573.3 	 504
5573.4 	 516
5573.5 	 528
5573.6 	 536
5573.7 	 540
5573.8 	 535
5573.9 	 530
5574.0 	 524
5574.1 	 519
5574.2 	 436
5574.3 	 432
5574.4 	 429
5574.5 	 422
5574.6 	 406
5574.7 	 392
5574.8 	 376
5574.9 	 362
5575.0 	 346
5575.1 	 332
5575.2 	 316
5575.4 	 0
5581.1 	 0
5581.2 	 31
5581.3 	 30
5581.4 	 29
5581.5 	 28
5581.6 	 26
5581.7 	 25
5581.8 	 24
5581.9 	 22
5582.0 	 20
5582.1 	 19
5582.2 	 17
5582.3 	 15
5582.4 	 14
5582.5 	 12
5582.6 	 11
5582.7 	 11
5582.8 	 11
5582.9 	 11
5583.0 	 11
5583.1 	 11
5583.2 	 11
5583.3 	 12
5583.4 	 14
5583.5 	 15
5583.6 	 17
5583.7 	 19
5583.8 	 20
5583.9 	 22
5584.0 	 24
5584.1 	 25
5584.2 	 27
5584.3 	 28
5584.4 	 30
5584.5 	 32
5584.6 	 33
5584.7 	 34
5584.8 	 34
5584.9 	 34
5585.0 	 34
5585.1 	 35
5585.2 	 35
5585.3 	 35
5585.4 	 35
5585.5 	 34
5585.6 	 34
5585.7 	 33
5585.8 	 32
5585.9 	 32
5586.0 	 31
5586.1 	 32
5586.2 	 34
5586.3 	 37
5586.4 	 39
5586.5 	 41
5586.6 	 44
5586.7 	 46
5586.8 	 49
5586.9 	 53
5587.0 	 58
5587.1 	 62
5587.2 	 66
5587.3 	 82
5587.4 	 86
5587.5 	 91
5587.6 	 95
5587.7 	 98
5587.8 	 102
5587.9 	 106
5588.0 	 109
5588.1 	 113
5588.2 	 114
5588.3 	 113
5588.4 	 111
5588.5 	 109
5588.6 	 107
5588.7 	 106
5588.8 	 104
5588.9 	 102
5589.0 	 99
5589.1 	 96
5589.2 	 94
5589.3 	 91
5589.4 	 89
5589.5 	 86
5589.6 	 84
5589.7 	 82
5589.8 	 80
5589.9 	 79
5590.0 	 77
5590.1 	 235
5590.2 	 232
5590.3 	 230
5590.4 	 227
5590.5 	 222
5590.6 	 214
5590.7 	 205
5590.8 	 197
5590.9 	 177
5591.0 	 168
5591.1 	 159
5591.2 	 150
5591.3 	 140
5591.4 	 131
5591.5 	 122
5591.6 	 112
5591.7 	 103
5591.8 	 93
5591.9 	 83
5592.0 	 74
5592.1 	 65
5592.2 	 60
5592.3 	 55
5592.4 	 38
5592.5 	 35
5592.6 	 33
5592.7 	 30
5592.8 	 28
5592.9 	 27
5593.0 	 28
5593.1 	 30
5593.2 	 32
5593.3 	 33
5593.4 	 35
5593.5 	 36
5593.6 	 38
5593.7 	 39
5593.8 	 40
5593.9 	 40
5594.0 	 40
5594.1 	 41
5594.2 	 41
5594.3 	 41
5594.4 	 42
5594.5 	 41
5594.6 	 39
5594.7 	 37
5594.8 	 34
5594.9 	 32
5595.0 	 30
5595.1 	 28
5595.2 	 25
5595.3 	 24
5595.4 	 25
5595.5 	 25
5595.6 	 25
5597.3 	 32
5597.4 	 33
5597.5 	 33
5597.6 	 34
5597.7 	 35
5597.8 	 39
5597.9 	 43
5598.0 	 46
5598.1 	 50
5598.2 	 54
5598.3 	 57
5598.4 	 61
5598.6 	 0
7600.0 	 1
##ESI mass spectrum
##Adduct mass = -1.0079
677.7 	 60
677.8 	 134
677.9 	 181
678.0 	 197
678.1 	 264
678.2 	 362
678.3 	 408
678.4 	 297
678.5 	 164
678.6 	 97
678.7 	 101
678.8 	 84
678.9 	 42
680.1 	 23
680.2 	 57
680.3 	 72
680.4 	 46
680.5 	 15
680.7 	 11
680.8 	 17
680.9 	 11
688.2 	 13
688.3 	 18
688.4 	 10
694.2 	 30
694.3 	 78
694.4 	 192
694.6 	 1108
694.7 	 5740
694.8 	 11660
694.9 	 12512
695.0 	 9304
695.1 	 5416
695.2 	 3506
695.3 	 2197
695.4 	 1173
695.5 	 554
695.6 	 367
695.7 	 454
695.8 	 427
695.9 	 307
696.0 	 191
696.1 	 147
696.2 	 170
696.3 	 182
696.4 	 164
696.5 	 139
696.6 	 151
696.7 	 193
696.8 	 203
696.9 	 137
697.0 	 65
697.1 	 53
697.2 	 102
697.3 	 144
697.4 	 140
697.5 	 126
697.6 	 138
697.7 	 164
697.8 	 157
697.9 	 101
698.0 	 46
698.1 	 26
698.2 	 39
698.3 	 42
698.4 	 24
698.7 	 34
698.8 	 63
698.9 	 59
699.0 	 40
699.1 	 43
699.2 	 68
699.3 	 78
699.4 	 45
699.5 	 13
699.6 	 9
699.7 	 24
699.8 	 24
699.9 	 12
700.0 	 2
701.3 	 18
701.4 	 20
701.5 	 14
746.9 	 14
747.0 	 23
747.1 	 39
747.2 	 55
747.3 	 61
747.4 	 37
747.5 	 10
749.2 	 19
749.3 	 38
749.4 	 36
749.5 	 22
749.6 	 14
749.7 	 18
749.8 	 19
749.9 	 10
750.7 	 18
750.8 	 27
750.9 	 17
752.7 	 19
752.8 	 30
752.9 	 20
753.3 	 14
774.5 	 11
774.6 	 71
774.7 	 173
774.8 	 271
774.9 	 276
775.0 	 241
775.1 	 228
775.2 	 239
775.3 	 220
775.4 	 143
775.5 	 72
775.6 	 37
775.7 	 39
775.8 	 33
775.9 	 19
777.2 	 12
777.3 	 22
777.4 	 20
777.5 	 12
777.6 	 10
777.7 	 16
777.8 	 19
777.9 	 17
778.0 	 16
778.1 	 25
778.2 	 34
778.3 	 32
778.4 	 16
786.2 	 14
786.3 	 33
786.4 	 40
786.5 	 35
786.6 	 32
786.7 	 36
786.8 	 36
786.9 	 20
789.8 	 13
793.7 	 58
793.8 	 215
793.9 	 583
794.0 	 1065
794.1 	 2206
794.2 	 3511
794.3 	 4054
794.4 	 2825
794.5 	 1423
794.6 	 706
794.7 	 676
794.8 	 502
794.9 	 290
795.0 	 137
795.1 	 80
795.2 	 92
795.3 	 79
795.4 	 53
795.5 	 29
795.6 	 17
795.7 	 19
795.8 	 24
795.9 	 20
796.0 	 11
796.1 	 12
796.2 	 24
796.3 	 32
796.4 	 23
796.5 	 11
796.6 	 11
796.7 	 23
796.8 	 34
796.9 	 35
797.0 	 31
797.1 	 47
797.2 	 77
797.3 	 100
797.4 	 86
797.5 	 66
797.6 	 54
797.7 	 50
797.8 	 33
797.9 	 13
798.8 	 13
798.9 	 12
799.0 	 10
799.1 	 10
799.2 	 13
799.3 	 13
801.8 	 14
820.3 	 10
820.4 	 11
904.2 	 12
904.3 	 15
904.4 	 13
904.5 	 10
907.8 	 10
917.3 	 10
917.4 	 11
926.2 	 33
926.3 	 82
926.4 	 122
926.5 	 136
926.6 	 183
926.7 	 258
926.8 	 295
926.9 	 221
927.0 	 137
927.1 	 95
927.2 	 90
927.3 	 71
927.4 	 42
927.5 	 18
930.2 	 11
930.3 	 14
930.4 	 16
930.5 	 17
930.6 	 19
930.7 	 18
930.8 	 12
932.8 	 10
1108.1 	 10
1108.2 	 17
1108.3 	 18
1108.4 	 11
1111.7 	 22
1111.8 	 41
1111.9 	 46
1112.0 	 48
1112.1 	 68
1112.2 	 101
1112.3 	 115
1112.4 	 85
1112.5 	 55
1112.6 	 50
1112.7 	 61
1112.8 	 54
1112.9 	 29
1113.0 	 10
1390.4 	 13
1390.5 	 20
1390.6 	 27
1390.7 	 28
1390.8 	 22
1390.9 	 12
