##Deconvoluted mass spectrum
1000.0 	 1
1496.5 	 0
1496.7 	 175
1496.8 	 164
1496.9 	 140
1497.0 	 115
1497.1 	 111
1497.2 	 110
1497.3 	 136
1497.4 	 167
1497.5 	 193
1497.6 	 217
1497.7 	 210
1497.8 	 196
1497.9 	 178
1498.0 	 159
1498.1 	 176
1498.2 	 199
1498.3 	 246
1498.4 	 298
1498.5 	 321
1498.6 	 339
1498.7 	 295
1498.8 	 240
1498.9 	 180
1499.0 	 120
1499.1 	 88
1499.2 	 61
1499.3 	 60
1499.4 	 64
1499.5 	 62
1499.6 	 59
1499.7 	 48
1499.8 	 36
1499.9 	 25
1500.0 	 14
1500.1 	 12
1500.2 	 13
1500.3 	 22
1500.4 	 32
1500.5 	 41
1500.6 	 49
1500.7 	 0
6585.3 	 0
6585.4 	 52
6585.5 	 58
6585.6 	 65
6585.7 	 71
6585.8 	 78
6585.9 	 84
6586.0 	 90
6586.1 	 97
6586.2 	 103
6586.3 	 108
6586.4 	 110
6586.5 	 111
6586.6 	 112
6586.7 	 114
6586.8 	 115
6586.9 	 116
6587.0 	 118
6587.1 	 136
6587.2 	 137
6587.3 	 135
6587.4 	 134
6587.5 	 132
6587.6 	 130
6587.7 	 128
6587.8 	 127
6587.9 	 125
6588.0 	 123
6588.1 	 121
6588.2 	 119
6588.3 	 116
6588.4 	 114
6588.5 	 111
6588.6 	 108
6588.7 	 106
6588.8 	 103
6588.9 	 101
6589.0 	 98
6589.1 	 97
6589.2 	 97
6589.3 	 96
6589.4 	 96
6589.5 	 95
6589.6 	 80
6589.7 	 80
6589.8 	 79
6589.9 	 78
6590.0 	 76
6590.1 	 73
6590.2 	 71
6590.3 	 68
6590.4 	 66
6590.5 	 63
6590.6 	 60
6590.7 	 58
6590.8 	 55
6590.9 	 51
6591.0 	 47
6591.1 	 44
6591.2 	 40
6591.3 	 36
6591.4 	 32
6591.5 	 28
6591.6 	 25
6591.8 	 0
6592.6 	 12
6592.7 	 12
6592.8 	 12
6592.9 	 12
6593.0 	 12
6593.2 	 0
6716.0 	 0
6716.1 	 19
6716.2 	 28
6716.3 	 38
6716.4 	 47
6716.5 	 57
6716.6 	 79
6716.7 	 92
6716.8 	 241
6716.9 	 495
6717.0 	 669
6717.1 	 861
6717.2 	 1049
6717.3 	 1239
6717.4 	 1432
6717.5 	 1624
6717.6 	 1816
6717.7 	 2048
6717.8 	 2359
6717.9 	 2670
6718.0 	 2982
6718.1 	 3307
6718.2 	 3622
6718.3 	 3936
6718.4 	 4247
6718.5 	 4543
6718.6 	 4958
6718.7 	 5735
6718.8 	 6508
6718.9 	 7278
6719.0 	 8044
6719.1 	 8808
6719.2 	 9566
6719.3 	 10296
6719.4 	 10973
6719.5 	 11715
6719.6 	 12623
6719.7 	 13532
6719.8 	 14440
6719.9 	 15348
6720.0 	 16256
6720.1 	 17150
6720.2 	 18019
6720.3 	 18875
6720.4 	 19608
6720.5 	 20008
6720.6 	 20408
6720.7 	 20809
6720.8 	 21213
6720.9 	 21612
6721.0 	 21999
6721.1 	 22387
6721.2 	 22771
6721.3 	 22823
6721.4 	 22054
6721.5 	 21284
6721.6 	 20512
6721.7 	 19728
6721.8 	 18935
6721.9 	 18129
6722.0 	 17322
6722.1 	 16513
6722.2 	 15658
6722.3 	 14716
6722.4 	 13774
6722.5 	 12815
6722.6 	 11828
6722.7 	 10841
6722.8 	 9854
6722.9 	 8867
6723.0 	 7882
6723.1 	 7023
6723.2 	 6469
6723.3 	 5926
6723.4 	 5404
6723.5 	 4881
6723.6 	 4348
6723.7 	 3830
6723.8 	 3313
6723.9 	 2796
6724.0 	 2405
6724.1 	 2343
6724.2 	 2312
6724.3 	 2284
6724.4 	 2256
6724.5 	 2228
6724.6 	 2201
6724.7 	 2173
6724.8 	 2146
6724.9 	 2096
6725.0 	 2027
6725.1 	 1959
6725.2 	 1900
6725.3 	 1840
6725.4 	 1780
6725.5 	 1720
6725.6 	 1660
6725.7 	 1574
6725.8 	 1506
6725.9 	 1440
6726.0 	 1375
6726.1 	 1312
6726.2 	 1256
6726.3 	 1201
6726.4 	 1146
6726.5 	 1090
6726.6 	 1032
6726.7 	 978
6726.8 	 931
6726.9 	 884
6727.0 	 838
6727.1 	 790
6727.2 	 741
6727.3 	 693
6727.4 	 646
6727.5 	 600
6727.6 	 560
6727.7 	 534
6727.8 	 509
6727.9 	 484
6728.0 	 459
6728.1 	 398
6728.2 	 379
6728.3 	 360
6728.4 	 342
6728.5 	 360
6728.6 	 357
6728.7 	 355
6728.8 	 352
6728.9 	 351
6729.0 	 352
6729.1 	 353
6729.2 	 355
6729.3 	 357
6729.4 	 358
6729.5 	 356
6729.6 	 353
6729.7 	 350
6729.8 	 347
6729.9 	 344
6730.0 	 340
6730.1 	 337
6730.2 	 336
6730.3 	 68
6730.4 	 66
6730.5 	 65
6730.6 	 63
6730.7 	 61
6730.8 	 286
6730.9 	 276
6731.0 	 266
6731.1 	 256
6731.2 	 249
6731.3 	 240
6731.4 	 231
6731.5 	 222
6731.6 	 213
6731.7 	 204
6731.8 	 194
6731.9 	 185
6732.0 	 176
6732.1 	 147
6732.2 	 143
6732.3 	 140
6732.4 	 136
6732.5 	 133
6732.6 	 154
6732.7 	 151
6732.8 	 148
6732.9 	 146
6733.0 	 145
6733.1 	 151
6733.2 	 155
6733.3 	 159
6733.4 	 163
6733.5 	 167
6733.6 	 171
6733.7 	 176
6733.8 	 180
6733.9 	 185
6734.0 	 189
6734.1 	 174
6734.2 	 179
6734.3 	 183
6734.4 	 20
6734.5 	 39
6734.6 	 20
6734.7 	 20
6734.8 	 20
6734.9 	 20
6735.0 	 19
6735.1 	 19
6735.2 	 19
6735.3 	 19
6735.4 	 18
6735.5 	 17
6735.6 	 16
6735.7 	 16
6735.8 	 15
6735.9 	 14
6736.0 	 14
6736.1 	 13
6736.2 	 13
6736.3 	 13
6736.4 	 13
6736.6 	 17
6736.7 	 16
6736.8 	 16
6736.9 	 16
6737.0 	 16
6737.1 	 16
6737.2 	 16
6737.3 	 30
6737.4 	 30
6737.5 	 30
6737.6 	 31
6737.7 	 31
6737.8 	 32
6737.9 	 34
6738.0 	 35
6738.1 	 17
6738.2 	 18
6738.3 	 19
6738.4 	 19
6738.5 	 20
6738.6 	 21
6738.7 	 22
6738.8 	 22
6738.9 	 23
6739.0 	 23
6739.1 	 24
6739.2 	 25
6739.3 	 25
6739.4 	 26
6739.5 	 28
6739.6 	 29
6739.7 	 30
6739.8 	 31
6739.9 	 32
6740.0 	 33
6740.1 	 35
6740.2 	 39
6740.3 	 42
6740.4 	 46
6740.5 	 49
6740.6 	 53
6740.7 	 56
6740.8 	 60
6740.9 	 63
6741.0 	 67
6741.1 	 70
6741.2 	 73
6741.3 	 77
6741.4 	 80
6741.5 	 84
6741.6 	 87
6741.7 	 89
6741.8 	 90
6741.9 	 90
6742.0 	 90
6742.1 	 91
6742.2 	 91
6742.3 	 91
6742.4 	 92
6742.5 	 90
6742.6 	 86
6742.7 	 81
6742.8 	 77
6742.9 	 72
6743.0 	 68
6743.1 	 63
6743.2 	 59
6743.3 	 55
6743.4 	 51
6743.5 	 47
6743.6 	 44
6743.7 	 40
6743.8 	 36
6743.9 	 33
6744.0 	 29
6744.1 	 27
6744.2 	 28
6744.3 	 28
6744.4 	 29
6744.5 	 30
6744.6 	 30
6744.7 	 31
6744.8 	 32
6744.9 	 33
6745.0 	 36
6745.1 	 39
6745.2 	 42
6745.3 	 46
6745.4 	 49
6745.5 	 52
6745.6 	 55
6745.7 	 57
6745.8 	 58
6745.9 	 59
6746.0 	 60
6746.1 	 61
6746.2 	 62
6746.3 	 63
6746.4 	 63
6746.5 	 63
6746.6 	 59
6746.7 	 56
6746.8 	 53
6746.9 	 49
6747.0 	 46
6747.1 	 42
6747.2 	 39
6747.4 	 0
8700.0 	 1
##ESI mass spectrum
##Adduct mass = -1.0079
657.7 	 17
657.8 	 22
657.9 	 15
658.3 	 12
670.6 	 17
670.7 	 111
670.8 	 282
670.9 	 457
671.0 	 577
671.1 	 702
671.2 	 799
671.3 	 793
671.4 	 561
671.5 	 333
671.6 	 203
671.7 	 175
671.8 	 125
671.9 	 70
672.0 	 30
672.1 	 14
672.2 	 22
672.3 	 27
672.4 	 20
672.7 	 16
672.8 	 19
730.7 	 50
730.8 	 108
730.9 	 120
731.0 	 100
731.1 	 83
731.2 	 79
731.3 	 56
731.4 	 22
732.7 	 26
732.8 	 35
732.9 	 21
733.3 	 12
745.3 	 116
745.4 	 740
745.5 	 1896
745.6 	 7676
745.7 	 15585
745.8 	 19278
745.9 	 12603
746.0 	 4875
746.1 	 1225
746.2 	 1495
746.3 	 1059
746.4 	 654
746.5 	 343
746.6 	 225
746.7 	 268
746.8 	 268
746.9 	 197
747.0 	 116
747.1 	 96
747.2 	 144
747.3 	 185
747.4 	 162
747.5 	 111
747.6 	 110
747.7 	 172
747.8 	 221
747.9 	 194
748.0 	 156
748.1 	 203
748.2 	 306
748.3 	 342
748.4 	 231
748.5 	 110
748.6 	 57
748.7 	 65
748.8 	 58
748.9 	 34
749.0 	 12
749.1 	 13
749.2 	 34
749.3 	 50
749.4 	 48
749.5 	 36
749.6 	 37
749.7 	 45
749.8 	 44
749.9 	 22
751.3 	 25
751.4 	 38
751.5 	 38
751.6 	 41
751.7 	 49
751.8 	 46
751.9 	 23
758.8 	 17
758.9 	 12
779.2 	 14
779.3 	 23
779.4 	 15
797.7 	 32
797.8 	 55
797.9 	 42
798.0 	 15
799.7 	 18
799.8 	 26
799.9 	 15
802.8 	 16
822.0 	 12
822.1 	 28
822.2 	 47
822.3 	 55
822.4 	 36
822.5 	 15
824.3 	 14
825.7 	 11
825.8 	 24
825.9 	 22
832.2 	 13
832.3 	 18
838.6 	 137
838.7 	 872
838.8 	 2073
838.9 	 2914
839.0 	 3117
839.1 	 2949
839.2 	 2639
839.3 	 2075
839.4 	 1149
839.5 	 475
839.6 	 208
839.7 	 231
839.8 	 171
839.9 	 95
840.0 	 39
840.1 	 25
840.2 	 37
840.3 	 42
840.4 	 39
840.5 	 32
840.6 	 22
840.7 	 18
840.8 	 20
840.9 	 19
841.0 	 13
841.2 	 13
841.3 	 20
841.4 	 25
841.5 	 34
841.6 	 62
841.7 	 89
841.8 	 92
841.9 	 56
842.0 	 27
842.1 	 32
842.2 	 57
842.3 	 64
842.4 	 37
843.2 	 11
845.3 	 17
845.4 	 16
845.7 	 11
911.7 	 15
911.8 	 19
948.2 	 11
948.3 	 14
958.5 	 11
958.6 	 38
958.7 	 95
958.8 	 164
958.9 	 180
959.0 	 166
959.1 	 165
959.2 	 183
959.3 	 173
959.4 	 108
959.5 	 53
959.6 	 31
959.7 	 32
959.8 	 23
961.7 	 17
961.8 	 19
961.9 	 14
962.2 	 14
962.3 	 15
962.4 	 11
1068.2 	 12
1068.3 	 16
1118.5 	 13
1118.6 	 48
1118.7 	 93
1118.8 	 120
1118.9 	 106
1119.0 	 81
1119.1 	 71
1119.2 	 77
1119.3 	 76
1119.4 	 56
1119.5 	 38
1119.6 	 28
1119.7 	 23
1119.8 	 14
1122.8 	 13
1122.9 	 11
1342.6 	 11
1342.7 	 18
1342.8 	 25
1342.9 	 22
1343.0 	 13
1343.4 	 11
1343.5 	 12
1343.6 	 13
1343.7 	 13
