##Deconvoluted mass spectrum
1000.0 	 1
4549.1 	 0
4549.3 	 19
4549.4 	 21
4549.5 	 24
4549.6 	 26
4549.7 	 28
4549.8 	 30
4549.9 	 30
4550.0 	 29
4550.1 	 28
4550.2 	 27
4550.3 	 26
4550.4 	 25
4550.5 	 23
4550.6 	 20
4550.7 	 18
4550.8 	 15
4550.9 	 13
4551.0 	 10
4551.1 	 9
4551.2 	 9
4551.3 	 9
4552.6 	 6
4552.7 	 6
4552.8 	 6
4552.9 	 6
4553.0 	 6
4553.1 	 6
4553.2 	 6
4553.3 	 6
4553.4 	 6
4553.5 	 6
4553.6 	 6
4553.7 	 7
4554.4 	 8
4554.5 	 9
4554.6 	 9
4554.7 	 9
4554.8 	 10
4554.9 	 11
4555.0 	 12
4555.1 	 13
4555.2 	 14
4555.3 	 14
4555.4 	 14
4555.5 	 14
4555.6 	 13
4555.7 	 13
4555.8 	 13
4555.9 	 0
5058.9 	 0
5059.0 	 6
5059.1 	 7
5059.2 	 8
5059.3 	 9
5059.4 	 10
5059.5 	 11
5059.6 	 12
5059.7 	 13
5059.8 	 13
5059.9 	 14
5060.0 	 14
5060.1 	 14
5060.2 	 15
5060.3 	 15
5060.4 	 15
5060.5 	 14
5060.6 	 13
5060.7 	 12
5060.8 	 12
5060.9 	 11
5061.0 	 10
5061.1 	 18
5061.2 	 22
5061.3 	 27
5061.4 	 31
5061.5 	 36
5061.6 	 40
5061.7 	 62
5061.8 	 70
5061.9 	 80
5062.0 	 89
5062.1 	 99
5062.2 	 108
5062.3 	 117
5062.4 	 125
5062.5 	 132
5062.6 	 138
5062.7 	 145
5062.8 	 151
5062.9 	 155
5063.0 	 157
5063.1 	 160
5063.2 	 160
5063.3 	 157
5063.4 	 153
5063.5 	 150
5063.6 	 146
5063.7 	 142
5063.8 	 138
5063.9 	 134
5064.0 	 128
5064.1 	 124
5064.2 	 121
5064.3 	 117
5064.4 	 114
5064.5 	 110
5064.6 	 107
5064.7 	 105
5064.8 	 104
5064.9 	 103
5065.0 	 102
5065.1 	 101
5065.2 	 100
5065.3 	 99
5065.4 	 99
5065.5 	 99
5065.6 	 100
5065.7 	 99
5065.8 	 99
5065.9 	 89
5066.0 	 89
5066.1 	 87
5066.2 	 86
5066.3 	 84
5066.4 	 82
5066.5 	 80
5066.6 	 78
5066.7 	 74
5066.8 	 70
5066.9 	 65
5067.0 	 60
5067.1 	 55
5067.2 	 50
5067.3 	 46
5067.4 	 42
5067.5 	 38
5067.6 	 34
5067.7 	 31
5067.8 	 27
5067.9 	 24
5068.0 	 20
5068.1 	 12
5068.2 	 11
5068.3 	 10
5068.4 	 9
5068.5 	 8
5068.6 	 7
5068.7 	 6
5068.8 	 6
5068.9 	 6
5069.0 	 7
5069.1 	 7
5069.2 	 7
5069.3 	 8
5069.4 	 8
5069.6 	 0
5192.0 	 0
5192.1 	 6
5192.2 	 6
5192.3 	 6
5192.4 	 6
5192.5 	 6
5192.6 	 7
5192.7 	 31
5192.8 	 40
5192.9 	 50
5193.0 	 61
5193.1 	 71
5193.2 	 81
5193.3 	 92
5193.4 	 117
5193.5 	 161
5193.6 	 222
5193.7 	 372
5193.8 	 227
5193.9 	 316
5194.0 	 405
5194.1 	 503
5194.2 	 593
5194.3 	 730
5194.4 	 908
5194.5 	 1665
5194.6 	 1885
5194.7 	 2104
5194.8 	 2422
5194.9 	 2867
5195.0 	 3318
5195.1 	 3769
5195.2 	 4221
5195.3 	 4672
5195.4 	 5123
5195.5 	 5554
5195.6 	 5972
5195.7 	 6392
5195.8 	 6812
5195.9 	 7231
5196.0 	 7651
5196.1 	 8032
5196.2 	 8250
5196.3 	 8312
5196.4 	 8373
5196.5 	 8435
5196.6 	 8492
5196.7 	 8504
5196.8 	 8477
5196.9 	 8367
5197.0 	 8155
5197.1 	 7941
5197.2 	 7726
5197.3 	 7467
5197.4 	 7167
5197.5 	 6868
5197.6 	 6565
5197.7 	 6249
5197.8 	 5940
5197.9 	 5587
5198.0 	 5193
5198.1 	 4803
5198.2 	 4415
5198.3 	 4069
5198.4 	 3774
5198.5 	 3513
5198.6 	 3281
5198.7 	 3049
5198.8 	 2816
5198.9 	 2584
5199.0 	 2355
5199.1 	 2180
5199.2 	 2049
5199.3 	 1918
5199.4 	 1787
5199.5 	 1656
5199.6 	 1524
5199.7 	 1425
5199.8 	 1354
5199.9 	 1284
5200.0 	 1213
5200.1 	 1143
5200.2 	 1075
5200.3 	 995
5200.4 	 917
5200.5 	 854
5200.6 	 793
5200.7 	 731
5200.8 	 669
5200.9 	 606
5201.0 	 542
5201.1 	 492
5201.2 	 460
5201.3 	 428
5201.4 	 396
5201.5 	 366
5201.6 	 329
5201.7 	 300
5201.8 	 289
5201.9 	 282
5202.0 	 274
5202.1 	 271
5202.2 	 271
5202.3 	 271
5202.4 	 271
5202.5 	 267
5202.6 	 254
5202.7 	 204
5202.8 	 201
5202.9 	 198
5203.0 	 245
5203.1 	 243
5203.2 	 239
5203.3 	 231
5203.4 	 221
5203.5 	 212
5203.6 	 202
5203.7 	 193
5203.8 	 184
5203.9 	 59
5204.0 	 55
5204.1 	 43
5204.2 	 40
5204.3 	 120
5204.4 	 109
5204.5 	 98
5204.6 	 89
5204.7 	 82
5204.8 	 76
5204.9 	 70
5205.0 	 63
5205.1 	 58
5205.2 	 54
5205.3 	 52
5205.4 	 52
5205.5 	 53
5205.6 	 54
5205.7 	 55
5205.8 	 58
5205.9 	 60
5206.0 	 62
5206.1 	 62
5206.2 	 63
5206.3 	 63
5206.4 	 63
5206.5 	 62
5206.6 	 62
5206.7 	 61
5206.8 	 58
5206.9 	 55
5207.0 	 51
5207.1 	 47
5207.2 	 44
5207.3 	 40
5207.4 	 36
5207.5 	 33
5207.6 	 31
5207.7 	 28
5207.8 	 19
5207.9 	 16
5208.0 	 14
5208.1 	 12
5208.2 	 12
5208.3 	 12
5208.4 	 12
5208.5 	 12
5208.6 	 12
5208.7 	 12
5208.8 	 13
5208.9 	 15
5209.0 	 26
5209.1 	 28
5209.2 	 22
5209.3 	 24
5209.4 	 26
5209.5 	 28
5209.6 	 30
5209.7 	 32
5209.8 	 33
5209.9 	 35
5210.0 	 37
5210.1 	 39
5210.2 	 40
5210.3 	 39
5210.4 	 39
5210.5 	 38
5210.6 	 38
5210.7 	 37
5210.8 	 36
5210.9 	 35
5211.0 	 34
5211.1 	 33
5211.2 	 32
5211.3 	 30
5211.4 	 29
5211.5 	 28
5211.7 	 0
7200.0 	 1
##ESI mass spectrum
##Adduct mass = -1.0079
617.7 	 9
617.8 	 12
617.9 	 8
631.7 	 17
631.8 	 31
631.9 	 33
632.0 	 28
632.1 	 25
632.2 	 26
632.3 	 24
632.4 	 14
632.5 	 6
636.2 	 6
636.3 	 6
648.0 	 6
648.1 	 7
648.2 	 14
648.3 	 30
648.4 	 51
648.5 	 66
648.6 	 82
648.7 	 98
648.8 	 104
648.9 	 79
649.0 	 52
649.1 	 35
649.2 	 30
649.3 	 22
649.4 	 14
649.5 	 8
662.3 	 7
662.4 	 7
662.8 	 7
672.7 	 9
672.8 	 20
672.9 	 35
673.0 	 51
673.1 	 80
673.2 	 112
673.3 	 127
673.4 	 99
673.5 	 68
673.6 	 52
673.7 	 46
673.8 	 32
673.9 	 16
697.8 	 9
697.9 	 10
698.0 	 11
698.1 	 10
698.2 	 7
705.7 	 6
705.8 	 9
705.9 	 6
721.7 	 6
721.8 	 13
721.9 	 15
722.0 	 10
722.1 	 23
722.2 	 55
722.3 	 85
722.4 	 80
722.5 	 65
722.6 	 59
722.7 	 64
722.8 	 55
722.9 	 30
723.0 	 12
723.1 	 6
723.2 	 8
725.8 	 6
740.8 	 20
740.9 	 86
741.1 	 689
741.2 	 2525
741.3 	 4626
741.4 	 4744
741.5 	 3568
741.6 	 2304
741.7 	 1693
741.8 	 1142
741.9 	 607
742.0 	 267
742.1 	 152
742.2 	 190
742.3 	 175
742.4 	 118
742.5 	 62
742.6 	 41
742.7 	 53
742.8 	 51
742.9 	 31
743.0 	 12
743.1 	 12
743.2 	 27
743.3 	 40
743.4 	 36
743.5 	 27
743.6 	 29
743.7 	 43
743.8 	 48
743.9 	 35
744.0 	 19
744.1 	 23
744.2 	 44
744.3 	 59
744.4 	 48
744.5 	 32
744.6 	 31
744.7 	 45
744.8 	 49
744.9 	 33
745.0 	 13
745.2 	 11
745.3 	 16
745.4 	 10
745.8 	 7
746.2 	 6
746.3 	 9
757.2 	 18
757.3 	 31
757.4 	 24
757.5 	 9
757.8 	 6
757.9 	 6
758.1 	 9
758.2 	 14
758.3 	 13
758.4 	 6
784.7 	 9
784.8 	 12
784.9 	 6
812.8 	 8
814.1 	 25
814.2 	 57
814.3 	 81
814.4 	 73
814.5 	 54
814.6 	 44
814.7 	 46
814.8 	 43
814.9 	 24
815.0 	 6
816.8 	 9
816.9 	 6
842.5 	 6
842.6 	 21
842.7 	 40
842.8 	 50
842.9 	 37
843.0 	 22
843.1 	 16
843.2 	 15
843.3 	 10
864.6 	 57
864.7 	 554
864.8 	 1580
864.9 	 2684
865.0 	 3367
865.1 	 3607
865.2 	 3363
865.3 	 2616
865.4 	 1362
865.5 	 510
865.6 	 227
865.7 	 294
865.8 	 229
865.9 	 139
866.0 	 69
866.1 	 44
866.2 	 54
866.3 	 51
866.4 	 33
866.5 	 13
866.6 	 6
866.7 	 11
866.8 	 11
866.9 	 6
867.2 	 9
867.3 	 16
867.4 	 13
867.5 	 6
867.6 	 6
867.7 	 11
867.8 	 11
868.2 	 15
868.3 	 36
868.4 	 46
868.5 	 42
868.6 	 46
868.7 	 57
868.8 	 59
868.9 	 41
869.0 	 24
869.1 	 17
869.2 	 18
869.3 	 14
869.4 	 6
870.8 	 6
915.3 	 6
915.4 	 6
1037.7 	 15
1037.8 	 37
1037.9 	 60
1038.0 	 73
1038.1 	 86
1038.2 	 104
1038.3 	 117
1038.4 	 91
1038.5 	 52
1038.6 	 29
1038.7 	 33
1038.8 	 33
1038.9 	 23
1039.0 	 13
1039.1 	 8
1039.2 	 8
1039.3 	 8
1039.4 	 8
1039.5 	 6
1042.8 	 7
1042.9 	 7
1043.0 	 6
1297.5 	 8
1297.6 	 11
1297.7 	 11
1297.8 	 10
1297.9 	 10
1298.0 	 11
1298.1 	 12
1298.2 	 13
1298.3 	 12
1298.4 	 7
