##Deconvoluted mass spectrum
1000.0 	 1
5144.8 	 0
5144.9 	 20
5145.0 	 36
5145.1 	 52
5145.2 	 68
5145.3 	 83
5145.4 	 99
5145.5 	 115
5145.6 	 131
5145.7 	 154
5145.8 	 188
5145.9 	 222
5146.0 	 256
5146.1 	 306
5146.2 	 346
5146.3 	 422
5146.4 	 473
5146.5 	 690
5146.6 	 861
5146.7 	 1031
5146.8 	 1201
5146.9 	 1373
5147.0 	 1546
5147.1 	 1716
5147.2 	 1962
5147.3 	 2312
5147.4 	 2650
5147.5 	 2984
5147.6 	 3318
5147.7 	 3654
5147.8 	 3990
5147.9 	 4380
5148.0 	 4838
5148.1 	 5347
5148.2 	 5940
5148.3 	 6534
5148.4 	 7127
5148.5 	 7721
5148.6 	 8360
5148.7 	 9056
5148.8 	 9753
5148.9 	 10474
5149.0 	 11238
5149.1 	 11995
5149.2 	 12748
5149.3 	 13390
5149.4 	 13898
5149.5 	 14407
5149.6 	 14914
5149.7 	 15380
5149.8 	 15776
5149.9 	 16160
5150.0 	 16334
5150.1 	 16266
5150.2 	 16201
5150.3 	 16135
5150.4 	 16070
5150.5 	 15880
5150.6 	 15479
5150.7 	 14874
5150.8 	 14012
5150.9 	 13151
5151.0 	 12290
5151.1 	 11424
5151.2 	 10572
5151.3 	 9698
5151.4 	 8859
5151.5 	 8112
5151.6 	 7362
5151.7 	 6618
5151.8 	 5878
5151.9 	 5149
5152.0 	 4409
5152.1 	 3844
5152.2 	 3538
5152.3 	 3229
5152.4 	 2918
5152.5 	 2607
5152.6 	 2297
5152.7 	 1988
5152.8 	 1769
5152.9 	 1708
5153.0 	 1730
5153.1 	 1753
5153.2 	 1777
5153.3 	 1801
5153.4 	 1824
5153.5 	 1820
5153.6 	 1780
5153.7 	 1733
5153.8 	 1672
5153.9 	 1612
5154.0 	 1551
5154.1 	 1458
5154.2 	 1401
5154.3 	 1341
5154.4 	 1281
5154.5 	 1218
5154.6 	 1151
5154.7 	 1084
5154.8 	 1018
5154.9 	 953
5155.0 	 891
5155.1 	 829
5155.2 	 767
5155.3 	 709
5155.4 	 659
5155.5 	 609
5155.6 	 565
5155.7 	 528
5155.8 	 492
5155.9 	 455
5156.0 	 419
5156.1 	 390
5156.2 	 372
5156.3 	 359
5156.4 	 351
5156.5 	 343
5156.6 	 335
5156.7 	 327
5156.8 	 319
5156.9 	 316
5157.0 	 186
5157.1 	 189
5157.2 	 192
5157.3 	 196
5157.4 	 315
5157.5 	 314
5157.6 	 313
5157.7 	 309
5157.8 	 299
5157.9 	 289
5158.0 	 279
5158.1 	 269
5158.2 	 259
5158.3 	 249
5158.4 	 240
5158.5 	 60
5158.6 	 57
5158.7 	 55
5158.8 	 52
5158.9 	 49
5159.0 	 46
5159.1 	 46
5159.2 	 48
5159.3 	 50
5159.4 	 51
5159.5 	 53
5159.6 	 55
5159.7 	 57
5159.8 	 59
5159.9 	 62
5160.0 	 65
5160.1 	 67
5160.2 	 70
5160.3 	 73
5160.4 	 76
5160.5 	 77
5160.6 	 76
5160.7 	 76
5160.8 	 75
5160.9 	 74
5161.0 	 74
5161.1 	 73
5161.2 	 71
5161.3 	 68
5161.4 	 64
5161.5 	 61
5161.6 	 57
5161.7 	 54
5161.8 	 50
5161.9 	 46
5162.0 	 43
5162.1 	 40
5162.2 	 37
5162.3 	 33
5162.4 	 30
5162.5 	 27
5162.6 	 25
5162.7 	 24
5162.8 	 24
5162.9 	 24
5163.0 	 23
5163.1 	 23
5163.2 	 22
5163.3 	 24
5163.4 	 27
5163.5 	 30
5163.6 	 33
5163.7 	 37
5163.8 	 40
5163.9 	 43
5164.0 	 47
5164.1 	 51
5164.2 	 55
5164.3 	 59
5164.8 	 0
6445.6 	 0
6445.7 	 13
6445.8 	 13
6445.9 	 13
6446.0 	 13
6446.1 	 13
6446.2 	 13
6446.3 	 13
6446.4 	 13
6446.6 	 0
7100.0 	 1
##ESI mass spectrum
##Adduct mass = -1.0079
571.3 	 15
571.4 	 14
601.8 	 11
601.9 	 10
606.4 	 14
606.5 	 26
606.6 	 32
606.7 	 27
606.8 	 20
606.9 	 10
626.2 	 17
626.3 	 19
627.9 	 14
628.0 	 32
628.1 	 47
628.2 	 50
628.3 	 41
628.4 	 19
642.1 	 14
642.2 	 141
642.3 	 415
642.4 	 870
642.5 	 1318
642.6 	 2791
642.7 	 4814
642.8 	 5958
642.9 	 4391
643.0 	 2324
643.1 	 1163
643.2 	 1062
643.3 	 797
643.4 	 478
643.5 	 253
643.6 	 182
643.7 	 207
643.8 	 175
643.9 	 107
644.0 	 53
644.1 	 41
644.2 	 60
644.3 	 68
644.4 	 52
644.5 	 34
644.6 	 33
644.7 	 45
644.8 	 52
644.9 	 40
645.0 	 16
645.1 	 14
645.2 	 50
645.3 	 102
645.4 	 111
645.5 	 83
645.6 	 58
645.7 	 57
645.8 	 57
645.9 	 40
646.0 	 26
646.1 	 31
646.2 	 52
646.3 	 65
646.4 	 50
646.5 	 30
646.6 	 23
646.7 	 29
646.8 	 27
646.9 	 14
647.2 	 12
647.3 	 16
647.7 	 4
647.8 	 7
647.9 	 4
648.2 	 5
648.3 	 14
648.4 	 23
648.5 	 27
648.6 	 30
648.7 	 38
648.8 	 41
648.9 	 24
649.0 	 5
649.6 	 2
649.7 	 10
649.8 	 15
649.9 	 9
650.3 	 2
652.2 	 5
652.3 	 8
652.4 	 5
687.3 	 4
687.4 	 17
687.5 	 31
687.6 	 63
687.7 	 103
687.8 	 126
687.9 	 89
688.0 	 36
688.1 	 3
689.6 	 10
689.7 	 52
689.8 	 102
689.9 	 106
690.0 	 81
690.1 	 62
690.2 	 61
690.3 	 51
690.4 	 24
690.5 	 4
691.1 	 10
691.2 	 36
691.3 	 51
691.4 	 32
691.5 	 8
693.1 	 26
693.2 	 87
693.3 	 145
693.4 	 135
693.5 	 96
693.6 	 72
693.7 	 68
693.8 	 49
693.9 	 20
715.0 	 11
715.1 	 52
715.2 	 129
715.3 	 214
715.4 	 223
715.5 	 192
715.6 	 163
715.7 	 147
715.8 	 113
715.9 	 57
716.0 	 17
717.6 	 19
717.7 	 79
717.8 	 150
717.9 	 161
718.0 	 132
718.1 	 103
718.2 	 101
718.3 	 96
718.4 	 61
718.5 	 22
718.7 	 15
718.8 	 19
718.9 	 10
734.2 	 114
734.3 	 798
734.4 	 2664
734.5 	 5383
734.6 	 8834
734.7 	 10652
734.8 	 9365
734.9 	 4844
735.0 	 1486
735.1 	 374
735.2 	 677
735.3 	 529
735.4 	 340
735.5 	 185
735.6 	 127
735.7 	 133
735.8 	 106
735.9 	 64
736.0 	 45
736.1 	 58
736.2 	 77
736.3 	 73
736.4 	 48
736.5 	 25
736.6 	 22
736.7 	 45
736.8 	 74
736.9 	 70
737.0 	 39
737.1 	 20
737.2 	 34
737.3 	 58
737.4 	 70
737.5 	 77
737.6 	 122
737.7 	 189
737.8 	 217
737.9 	 150
738.0 	 76
738.1 	 49
738.2 	 60
738.3 	 51
738.4 	 23
739.3 	 15
804.7 	 13
804.8 	 13
808.8 	 10
808.9 	 15
809.0 	 13
820.3 	 11
834.7 	 13
834.8 	 22
834.9 	 16
837.7 	 11
837.8 	 14
837.9 	 11
856.7 	 31
856.8 	 103
856.9 	 191
857.0 	 242
857.1 	 310
857.2 	 386
857.3 	 413
857.4 	 293
857.5 	 169
857.6 	 114
857.7 	 121
857.8 	 98
857.9 	 55
858.0 	 21
859.2 	 14
859.3 	 17
860.7 	 11
860.8 	 14
860.9 	 14
861.0 	 12
861.1 	 11
877.7 	 10
907.1 	 11
1010.7 	 11
1028.2 	 13
1028.3 	 37
1028.4 	 55
1028.5 	 57
1028.6 	 78
1028.7 	 117
1028.8 	 144
1028.9 	 112
1029.0 	 68
1029.1 	 49
1029.2 	 56
1029.3 	 55
1029.4 	 41
1029.5 	 25
1029.6 	 17
1029.7 	 18
1029.8 	 15
1033.1 	 11
1033.2 	 15
1033.3 	 15
1033.4 	 10
1285.8 	 12
1285.9 	 13
1286.0 	 15
1286.1 	 22
1286.2 	 29
1286.3 	 30
1286.4 	 21
1286.5 	 14
1286.6 	 11
1286.7 	 11
1287.0 	 10
