##Deconvoluted mass spectrum
1000.0 	 1
2987.3 	 0
2990.3 	 8
2990.4 	 8
2990.5 	 0
5833.8 	 0
5833.9 	 29
5834.0 	 36
5834.1 	 62
5834.2 	 70
5834.3 	 79
5834.4 	 88
5834.5 	 96
5834.6 	 105
5834.7 	 114
5834.8 	 123
5834.9 	 133
5835.0 	 144
5835.1 	 155
5835.2 	 168
5835.3 	 181
5835.4 	 195
5835.5 	 208
5835.6 	 221
5835.7 	 234
5835.8 	 244
5835.9 	 254
5836.0 	 274
5836.1 	 286
5836.2 	 300
5836.3 	 314
5836.4 	 328
5836.5 	 342
5836.6 	 356
5836.7 	 369
5836.8 	 382
5836.9 	 407
5837.0 	 421
5837.1 	 435
5837.2 	 448
5837.3 	 460
5837.4 	 473
5837.5 	 484
5837.6 	 495
5837.7 	 506
5837.8 	 516
5837.9 	 527
5838.0 	 538
5838.1 	 547
5838.2 	 550
5838.3 	 554
5838.4 	 555
5838.5 	 553
5838.6 	 549
5838.7 	 546
5838.8 	 543
5838.9 	 541
5839.0 	 538
5839.1 	 536
5839.2 	 530
5839.3 	 522
5839.4 	 506
5839.5 	 489
5839.6 	 472
5839.7 	 455
5839.8 	 438
5839.9 	 421
5840.0 	 404
5840.1 	 388
5840.2 	 372
5840.3 	 355
5840.4 	 338
5840.5 	 321
5840.6 	 304
5840.7 	 287
5840.8 	 270
5840.9 	 253
5841.0 	 235
5841.1 	 221
5841.2 	 213
5841.3 	 206
5841.4 	 198
5841.5 	 191
5841.6 	 184
5841.7 	 178
5841.8 	 171
5841.9 	 165
5842.0 	 160
5842.1 	 158
5842.2 	 156
5842.3 	 154
5842.4 	 154
5842.5 	 153
5842.6 	 151
5842.7 	 150
5842.8 	 148
5842.9 	 146
5843.0 	 142
5843.1 	 137
5843.2 	 132
5843.3 	 118
5843.4 	 113
5843.5 	 109
5843.6 	 105
5843.7 	 84
5843.8 	 80
5843.9 	 75
5844.0 	 70
5844.1 	 45
5844.2 	 41
5844.3 	 38
5844.4 	 34
5844.5 	 31
5844.6 	 27
5844.8 	 0
5967.0 	 0
5967.1 	 41
5967.2 	 50
5967.3 	 60
5967.4 	 69
5967.5 	 78
5967.6 	 88
5967.7 	 97
5967.8 	 106
5967.9 	 115
5968.0 	 125
5968.1 	 136
5968.2 	 156
5968.3 	 211
5968.4 	 241
5968.5 	 272
5968.6 	 314
5968.7 	 348
5968.8 	 382
5968.9 	 1115
5969.0 	 1350
5969.1 	 1586
5969.2 	 1822
5969.3 	 2057
5969.4 	 2293
5969.5 	 2528
5969.6 	 2762
5969.7 	 2994
5969.8 	 3247
5969.9 	 3557
5970.0 	 3866
5970.1 	 4199
5970.2 	 4618
5970.3 	 5037
5970.4 	 5454
5970.5 	 5862
5970.6 	 6255
5970.7 	 6633
5970.8 	 6970
5970.9 	 7318
5971.0 	 7656
5971.1 	 8008
5971.2 	 8419
5971.3 	 8822
5971.4 	 9217
5971.5 	 9611
5971.6 	 9958
5971.7 	 10180
5971.8 	 10415
5971.9 	 10646
5972.0 	 10873
5972.1 	 11087
5972.2 	 11249
5972.3 	 11412
5972.4 	 11574
5972.5 	 11683
5972.6 	 11668
5972.7 	 11654
5972.8 	 11641
5972.9 	 11629
5973.0 	 11623
5973.1 	 11565
5973.2 	 11303
5973.3 	 11035
5973.4 	 10743
5973.5 	 10392
5973.6 	 10040
5973.7 	 9688
5973.8 	 9334
5973.9 	 8980
5974.0 	 8627
5974.1 	 8259
5974.2 	 7841
5974.3 	 7421
5974.4 	 6994
5974.5 	 6563
5974.6 	 6129
5974.7 	 5698
5974.8 	 5268
5974.9 	 4837
5975.0 	 4405
5975.1 	 3989
5975.2 	 3663
5975.3 	 3414
5975.4 	 3169
5975.5 	 2925
5975.6 	 2681
5975.7 	 2437
5975.8 	 2193
5975.9 	 1950
5976.0 	 1706
5976.1 	 1510
5976.2 	 1461
5976.3 	 1413
5976.4 	 1364
5976.5 	 1316
5976.6 	 1260
5976.7 	 1213
5976.8 	 1167
5976.9 	 1123
5977.0 	 1096
5977.1 	 1098
5977.2 	 1095
5977.3 	 1091
5977.4 	 1073
5977.5 	 1070
5977.6 	 1068
5977.7 	 1065
5977.8 	 1060
5977.9 	 1039
5978.0 	 1014
5978.1 	 990
5978.2 	 962
5978.3 	 935
5978.4 	 907
5978.5 	 879
5978.6 	 851
5978.7 	 822
5978.8 	 792
5978.9 	 757
5979.0 	 722
5979.1 	 687
5979.2 	 657
5979.3 	 608
5979.4 	 579
5979.5 	 550
5979.6 	 520
5979.7 	 491
5979.8 	 463
5979.9 	 434
5980.0 	 406
5980.1 	 380
5980.2 	 363
5980.3 	 346
5980.4 	 328
5980.5 	 311
5980.6 	 296
5980.7 	 285
5980.8 	 275
5980.9 	 264
5981.0 	 254
5981.1 	 245
5981.2 	 245
5981.3 	 244
5981.4 	 244
5981.5 	 150
5981.6 	 153
5981.7 	 157
5981.8 	 161
5981.9 	 164
5982.0 	 273
5982.1 	 278
5982.2 	 281
5982.3 	 284
5982.4 	 286
5982.5 	 287
5982.6 	 289
5982.7 	 290
5982.8 	 291
5982.9 	 178
5983.0 	 179
5983.2 	 0
5983.3 	 115
5983.4 	 112
5983.5 	 109
5983.6 	 106
5983.7 	 104
5983.8 	 101
5983.9 	 98
5984.0 	 95
5984.1 	 92
5984.2 	 89
5984.3 	 86
5984.4 	 83
5984.5 	 80
5984.6 	 77
5984.7 	 74
5984.8 	 70
5984.9 	 67
5985.0 	 64
5985.1 	 62
5985.2 	 61
5985.3 	 61
5985.4 	 60
5985.5 	 60
5985.6 	 59
5985.7 	 58
5985.8 	 58
5985.9 	 57
5986.0 	 58
5986.1 	 60
5986.2 	 62
5986.3 	 64
5986.4 	 66
5986.5 	 68
5986.6 	 70
5986.7 	 72
5986.8 	 74
5986.9 	 76
5987.0 	 77
5987.1 	 77
5987.2 	 78
5987.3 	 78
5987.4 	 79
5987.5 	 80
5987.6 	 80
5987.7 	 81
5987.8 	 80
5987.9 	 77
5988.0 	 74
5988.1 	 71
5988.2 	 68
5988.3 	 65
5988.4 	 62
5988.5 	 59
5988.6 	 56
5988.7 	 53
5988.8 	 49
5988.9 	 45
5989.0 	 41
5989.1 	 37
5989.2 	 33
5989.3 	 29
5989.4 	 25
5989.5 	 21
5989.6 	 18
5989.7 	 20
5989.8 	 21
5989.9 	 23
5990.0 	 24
5990.1 	 26
5990.2 	 27
5990.3 	 28
5990.4 	 30
5990.5 	 33
5990.6 	 40
5990.7 	 47
5990.8 	 54
5990.9 	 61
5991.0 	 68
5991.1 	 75
5991.2 	 82
5991.3 	 89
5991.4 	 96
5991.5 	 101
5991.6 	 107
5991.7 	 113
5991.8 	 119
5991.9 	 125
5992.0 	 130
5992.1 	 160
5992.2 	 168
5992.3 	 174
5992.4 	 174
5992.5 	 174
5992.6 	 175
5992.7 	 175
5992.8 	 175
5992.9 	 174
5993.0 	 172
5993.1 	 170
5993.2 	 167
5993.3 	 163
5993.4 	 158
5993.5 	 153
5993.6 	 148
5993.7 	 142
5993.8 	 136
5993.9 	 130
5994.0 	 123
5994.1 	 118
5994.2 	 105
5994.3 	 102
5994.4 	 99
5994.5 	 96
5994.6 	 170
5994.7 	 164
5994.8 	 157
5994.9 	 151
5995.0 	 146
5995.1 	 143
5995.2 	 141
5995.3 	 139
5995.4 	 138
5995.5 	 136
5995.6 	 135
5995.7 	 133
5995.8 	 132
5995.9 	 130
5996.0 	 127
5996.1 	 117
5996.2 	 118
5996.3 	 118
5996.4 	 118
5996.5 	 118
5996.6 	 119
5996.7 	 119
5996.8 	 119
5996.9 	 117
5997.0 	 115
5997.1 	 114
5997.2 	 111
5997.3 	 109
5997.4 	 106
5997.5 	 104
5997.6 	 102
5997.7 	 99
5997.8 	 97
5997.9 	 95
5998.0 	 93
5998.1 	 90
5998.2 	 86
5998.3 	 82
5998.4 	 78
5998.5 	 74
5998.6 	 70
5998.7 	 68
5998.8 	 66
5998.9 	 64
5999.0 	 62
5999.1 	 59
5999.2 	 57
5999.3 	 54
5999.4 	 52
5999.5 	 50
5999.6 	 49
5999.7 	 48
5999.8 	 48
5999.9 	 47
6000.0 	 46
6000.1 	 45
6000.2 	 46
6000.3 	 47
6000.4 	 48
6000.5 	 48
6000.6 	 47
6000.7 	 47
6000.8 	 47
6000.9 	 47
6001.0 	 47
6001.1 	 47
6001.2 	 49
6001.3 	 12
6001.4 	 14
6001.5 	 15
6001.6 	 16
6001.7 	 17
6001.8 	 18
6001.9 	 19
6002.0 	 20
6002.1 	 21
6002.2 	 22
6002.3 	 22
6002.4 	 23
6002.5 	 24
6002.6 	 25
6002.7 	 25
6002.8 	 26
6002.9 	 27
6003.0 	 27
6003.1 	 28
6003.2 	 27
6003.3 	 26
6003.4 	 26
6003.5 	 25
6003.6 	 24
6003.7 	 24
6003.8 	 23
6003.9 	 22
6004.0 	 22
6004.1 	 21
6004.2 	 20
6004.3 	 19
6004.4 	 18
6004.5 	 17
6004.6 	 16
6004.7 	 15
6004.8 	 14
6004.9 	 13
6005.0 	 12
6005.2 	 0
8000.0 	 1
##ESI mass spectrum
##Adduct mass = -1.0079
556.9 	 15
557.0 	 20
557.1 	 14
582.4 	 18
582.5 	 34
582.6 	 79
582.7 	 145
582.8 	 194
582.9 	 159
583.0 	 94
583.1 	 52
583.2 	 48
583.3 	 39
583.4 	 20
595.7 	 39
595.8 	 132
595.9 	 333
596.0 	 527
596.1 	 1792
596.2 	 3774
596.3 	 5075
596.4 	 3851
596.5 	 2008
596.6 	 907
596.7 	 792
596.8 	 601
596.9 	 377
597.0 	 199
597.1 	 134
597.2 	 171
597.3 	 180
597.4 	 138
597.5 	 86
597.6 	 69
597.7 	 94
597.8 	 110
597.9 	 89
598.0 	 54
598.1 	 48
598.2 	 76
598.3 	 103
598.4 	 91
598.5 	 66
598.6 	 53
598.7 	 59
598.8 	 57
598.9 	 37
599.0 	 15
599.1 	 10
599.2 	 21
599.3 	 28
599.4 	 21
599.5 	 11
601.3 	 10
601.4 	 13
601.5 	 11
612.2 	 38
612.3 	 78
612.4 	 88
612.5 	 78
612.6 	 114
612.7 	 180
612.8 	 214
612.9 	 162
613.0 	 100
613.1 	 54
613.2 	 34
613.3 	 12
647.2 	 27
647.3 	 91
647.4 	 170
647.5 	 221
647.6 	 268
647.7 	 305
647.8 	 299
647.9 	 197
648.0 	 103
648.1 	 66
648.2 	 73
648.3 	 56
648.4 	 25
650.2 	 25
650.3 	 45
650.4 	 37
650.5 	 15
662.2 	 556
662.3 	 2156
662.4 	 4464
662.5 	 6240
662.6 	 6597
662.7 	 5437
662.8 	 3535
662.9 	 1538
663.0 	 474
663.1 	 224
663.2 	 371
663.3 	 330
663.4 	 228
663.5 	 132
663.6 	 95
663.7 	 112
663.8 	 116
663.9 	 90
664.0 	 62
664.1 	 57
664.2 	 76
664.3 	 81
664.4 	 54
664.5 	 18
664.6 	 31
664.7 	 94
664.8 	 146
664.9 	 125
665.0 	 79
665.1 	 58
665.2 	 65
665.3 	 62
665.4 	 42
665.5 	 24
665.6 	 22
665.7 	 34
665.8 	 38
665.9 	 29
666.0 	 15
666.1 	 10
666.2 	 16
666.3 	 20
666.4 	 13
668.2 	 14
668.3 	 24
668.4 	 18
728.6 	 11
728.7 	 22
728.8 	 32
728.9 	 27
729.0 	 18
729.1 	 14
729.2 	 17
729.3 	 17
729.4 	 9
735.2 	 9
735.3 	 11
743.1 	 18
743.2 	 39
743.3 	 48
743.4 	 32
743.5 	 15
743.7 	 9
745.1 	 83
745.2 	 266
745.3 	 469
745.4 	 492
745.5 	 411
745.6 	 352
745.7 	 348
745.8 	 298
745.9 	 169
746.0 	 64
746.1 	 24
746.2 	 35
746.3 	 31
746.4 	 19
748.0 	 14
748.1 	 28
748.2 	 32
748.3 	 27
748.4 	 16
748.5 	 8
770.0 	 11
770.1 	 18
770.2 	 23
770.3 	 20
770.4 	 9
832.7 	 9
832.8 	 21
832.9 	 29
833.0 	 32
833.1 	 41
833.2 	 59
833.3 	 73
833.4 	 60
833.5 	 37
833.6 	 23
833.7 	 20
833.8 	 16
851.6 	 19
851.7 	 70
851.8 	 131
851.9 	 157
852.0 	 164
852.1 	 192
852.2 	 236
852.3 	 241
852.4 	 160
852.5 	 80
852.6 	 42
852.7 	 41
852.8 	 28
852.9 	 15
855.0 	 9
855.1 	 14
855.2 	 14
855.3 	 10
876.9 	 8
877.0 	 10
979.3 	 9
993.7 	 10
993.8 	 30
993.9 	 53
994.0 	 68
994.1 	 94
994.2 	 133
994.3 	 167
994.4 	 148
994.5 	 100
994.6 	 62
994.7 	 53
994.8 	 51
994.9 	 40
995.0 	 28
995.1 	 19
995.2 	 18
995.3 	 12
995.8 	 8
997.7 	 8
997.8 	 10
997.9 	 8
1083.2 	 8
1192.7 	 10
1192.8 	 25
1192.9 	 40
1193.0 	 50
1193.1 	 62
1193.2 	 74
1193.3 	 76
1193.4 	 57
1193.5 	 41
1193.6 	 40
1193.7 	 47
1193.8 	 44
1193.9 	 29
1194.0 	 17
1194.1 	 12
1194.2 	 12
1194.3 	 8
1197.6 	 9
1197.7 	 8
1197.8 	 8
1212.2 	 9
1212.3 	 8
1491.7 	 11
1491.8 	 15
1491.9 	 11
