##Deconvoluted mass spectrum
1000.0 	 1
6060.8 	 0
6060.9 	 17
6061.0 	 24
6061.1 	 31
6061.2 	 38
6061.3 	 45
6061.4 	 52
6061.5 	 59
6061.6 	 66
6061.7 	 73
6061.8 	 81
6061.9 	 89
6062.0 	 96
6062.1 	 104
6062.2 	 112
6062.3 	 120
6062.4 	 128
6062.5 	 133
6062.6 	 134
6062.7 	 135
6062.8 	 136
6062.9 	 137
6063.0 	 138
6063.1 	 150
6063.2 	 152
6063.3 	 153
6063.4 	 151
6063.5 	 150
6063.6 	 148
6063.7 	 146
6063.8 	 145
6063.9 	 143
6064.0 	 142
6064.1 	 141
6064.2 	 141
6064.3 	 140
6064.4 	 140
6064.5 	 140
6064.6 	 140
6064.7 	 140
6064.8 	 139
6064.9 	 140
6065.0 	 142
6065.1 	 143
6065.2 	 145
6065.3 	 146
6065.4 	 148
6065.5 	 149
6065.6 	 150
6065.7 	 150
6065.8 	 148
6065.9 	 147
6066.0 	 145
6066.1 	 131
6066.2 	 130
6066.3 	 128
6066.4 	 127
6066.5 	 123
6066.6 	 116
6066.7 	 108
6066.8 	 101
6066.9 	 93
6067.0 	 86
6067.1 	 78
6067.2 	 71
6067.3 	 64
6067.4 	 57
6067.5 	 51
6067.6 	 44
6067.7 	 38
6067.8 	 31
6067.9 	 25
6068.0 	 18
6068.2 	 0
6724.8 	 0
6724.9 	 42
6725.0 	 69
6725.1 	 95
6725.2 	 122
6725.3 	 148
6725.4 	 175
6725.5 	 202
6725.6 	 228
6725.7 	 284
6725.8 	 345
6725.9 	 428
6726.0 	 511
6726.1 	 632
6726.2 	 725
6726.3 	 819
6726.4 	 912
6726.5 	 1009
6726.6 	 1116
6726.7 	 1229
6726.8 	 1357
6726.9 	 1485
6727.0 	 1613
6727.1 	 1752
6727.2 	 1887
6727.3 	 2010
6727.4 	 2136
6727.5 	 2263
6727.6 	 2489
6727.7 	 2960
6727.8 	 3433
6727.9 	 3906
6728.0 	 4377
6728.1 	 4850
6728.2 	 5325
6728.3 	 5799
6728.4 	 6273
6728.5 	 6802
6728.6 	 7468
6728.7 	 8134
6728.8 	 8809
6728.9 	 9469
6729.0 	 10119
6729.1 	 10768
6729.2 	 11410
6729.3 	 12045
6729.4 	 12603
6729.5 	 12968
6729.6 	 13333
6729.7 	 13679
6729.8 	 13991
6729.9 	 14303
6730.0 	 14612
6730.1 	 14923
6730.2 	 15236
6730.3 	 15323
6730.4 	 14854
6730.5 	 14352
6730.6 	 13792
6730.7 	 13236
6730.8 	 12679
6730.9 	 12121
6731.0 	 11562
6731.1 	 11003
6731.2 	 10410
6731.3 	 9737
6731.4 	 9074
6731.5 	 8410
6731.6 	 7739
6731.7 	 7076
6731.8 	 6413
6731.9 	 5750
6732.0 	 5087
6732.1 	 4521
6732.2 	 4181
6732.3 	 3842
6732.4 	 3502
6732.5 	 3163
6732.6 	 2824
6732.7 	 2483
6732.8 	 2142
6732.9 	 1817
6733.0 	 1604
6733.1 	 1603
6733.2 	 1596
6733.3 	 1589
6733.4 	 1582
6733.5 	 1576
6733.6 	 1570
6733.7 	 1561
6733.8 	 1546
6733.9 	 1508
6734.0 	 1451
6734.1 	 1394
6734.2 	 1340
6734.3 	 1286
6734.4 	 1232
6734.5 	 1179
6734.6 	 1126
6734.7 	 1074
6734.8 	 1023
6734.9 	 974
6735.0 	 926
6735.1 	 880
6735.2 	 840
6735.3 	 801
6735.4 	 764
6735.5 	 726
6735.6 	 688
6735.7 	 652
6735.8 	 621
6735.9 	 590
6736.0 	 559
6736.1 	 531
6736.2 	 498
6736.3 	 478
6736.4 	 457
6736.5 	 437
6736.6 	 421
6736.7 	 417
6736.8 	 414
6736.9 	 411
6737.0 	 410
6737.1 	 410
6737.2 	 408
6737.3 	 406
6737.4 	 405
6737.5 	 407
6737.6 	 418
6737.7 	 401
6737.8 	 412
6737.9 	 424
6738.0 	 435
6738.1 	 470
6738.2 	 472
6738.3 	 474
6738.4 	 475
6738.5 	 473
6738.6 	 470
6738.7 	 467
6738.8 	 464
6738.9 	 461
6739.0 	 458
6739.1 	 454
6739.2 	 448
6739.3 	 218
6739.4 	 213
6739.5 	 208
6739.6 	 202
6739.7 	 181
6739.8 	 360
6739.9 	 348
6740.0 	 335
6740.1 	 322
6740.2 	 311
6740.3 	 300
6740.4 	 288
6740.5 	 276
6740.6 	 265
6740.7 	 253
6740.8 	 242
6740.9 	 230
6741.0 	 219
6741.1 	 209
6741.2 	 207
6741.3 	 225
6741.4 	 223
6741.5 	 221
6741.6 	 218
6741.7 	 217
6741.8 	 217
6741.9 	 216
6742.0 	 217
6742.1 	 113
6742.2 	 120
6742.3 	 126
6742.4 	 132
6742.5 	 138
6742.6 	 241
6742.7 	 243
6742.8 	 245
6742.9 	 214
6743.0 	 215
6743.1 	 216
6743.2 	 216
6743.3 	 215
6743.4 	 78
6743.5 	 74
6743.6 	 71
6743.7 	 67
6743.8 	 63
6743.9 	 60
6744.0 	 56
6744.1 	 52
6744.2 	 49
6744.3 	 46
6744.4 	 43
6744.5 	 40
6744.6 	 37
6744.7 	 34
6744.8 	 31
6744.9 	 28
6745.0 	 25
6745.1 	 23
6745.2 	 22
6745.3 	 20
6745.4 	 19
6745.5 	 18
6745.6 	 17
6745.7 	 16
6745.8 	 14
6745.9 	 13
6746.0 	 12
6746.1 	 11
6746.2 	 11
6746.3 	 11
6746.4 	 12
6746.5 	 12
6746.6 	 12
6746.7 	 12
6746.8 	 12
6746.9 	 13
6747.0 	 13
6747.1 	 13
6747.2 	 13
6747.3 	 13
6747.4 	 13
6747.5 	 13
6747.6 	 13
6747.7 	 13
6747.8 	 13
6747.9 	 13
6748.0 	 13
6748.1 	 13
6748.2 	 13
6748.3 	 13
6748.4 	 12
6748.5 	 12
6748.6 	 12
6748.7 	 12
6748.8 	 12
6748.9 	 11
6749.0 	 11
6749.2 	 0
6749.3 	 0
6750.6 	 0
6753.6 	 0
6754.4 	 0
6761.3 	 15
6761.4 	 80
6761.5 	 84
6761.6 	 89
6761.7 	 93
6761.8 	 98
6761.9 	 99
6762.0 	 100
6762.1 	 116
6762.2 	 118
6762.3 	 120
6762.4 	 123
6762.5 	 124
6762.6 	 126
6762.7 	 126
6762.8 	 124
6762.9 	 122
6763.0 	 120
6763.1 	 118
6763.2 	 115
6763.3 	 111
6763.4 	 107
6763.5 	 103
6763.6 	 100
6763.7 	 97
6763.8 	 94
6763.9 	 91
6764.0 	 88
6764.1 	 56
6764.2 	 55
6764.3 	 54
6764.4 	 53
6764.5 	 53
6764.6 	 55
6764.7 	 57
6764.8 	 59
6764.9 	 61
6765.0 	 63
6765.1 	 65
6765.2 	 67
6765.3 	 69
6765.4 	 70
6765.5 	 71
6765.6 	 72
6765.7 	 73
6765.8 	 74
6765.9 	 75
6766.0 	 76
6766.1 	 77
6766.2 	 78
6766.3 	 78
6766.4 	 75
6766.5 	 72
6766.6 	 68
6766.7 	 65
6766.8 	 62
6766.9 	 59
6767.0 	 56
6767.1 	 52
6767.2 	 49
6767.3 	 45
6767.4 	 41
6767.5 	 37
6767.6 	 33
6767.7 	 29
6767.8 	 26
6767.9 	 22
6768.0 	 18
6768.1 	 15
6768.2 	 15
6768.3 	 14
6768.4 	 14
6768.5 	 14
6769.5 	 12
6769.6 	 12
6769.7 	 11
6769.8 	 11
6769.9 	 11
6770.0 	 11
6770.1 	 11
6770.2 	 11
6770.3 	 11
6770.4 	 11
6770.5 	 11
6770.6 	 11
6770.7 	 11
6770.9 	 0
7416.9 	 0
7417.0 	 18
7417.1 	 19
7417.2 	 21
7417.3 	 23
7417.4 	 25
7417.5 	 27
7417.6 	 29
7417.7 	 31
7417.8 	 33
7417.9 	 34
7418.0 	 36
7418.1 	 51
7418.2 	 52
7418.3 	 54
7418.4 	 55
7418.5 	 56
7418.6 	 58
7418.7 	 59
7418.8 	 60
7418.9 	 59
7419.0 	 58
7419.1 	 58
7419.2 	 56
7419.3 	 55
7419.4 	 53
7419.5 	 52
7419.6 	 50
7419.7 	 48
7419.8 	 46
7419.9 	 44
7420.0 	 42
7420.1 	 29
7420.2 	 28
7420.3 	 26
7420.4 	 25
7420.5 	 23
7420.6 	 22
7420.7 	 21
7420.8 	 20
7420.9 	 20
7421.0 	 19
7421.1 	 18
7421.2 	 18
7421.3 	 17
7421.4 	 16
7421.5 	 16
7421.6 	 16
7421.7 	 16
7421.8 	 16
7421.9 	 16
7422.0 	 16
7422.1 	 16
7422.2 	 16
7422.3 	 16
7422.4 	 16
7422.5 	 16
7422.6 	 15
7422.7 	 15
7422.8 	 15
7422.9 	 14
7423.0 	 14
7423.1 	 14
7423.2 	 13
7423.4 	 0
8700.0 	 1
##ESI mass spectrum
##Adduct mass = -1.0079
605.3 	 11
605.4 	 18
605.5 	 17
605.6 	 12
652.3 	 8
658.3 	 8
658.4 	 8
658.7 	 8
671.6 	 25
671.7 	 108
671.8 	 213
671.9 	 249
672.0 	 250
672.1 	 282
672.2 	 322
672.3 	 297
672.4 	 192
672.5 	 105
672.6 	 105
672.7 	 176
672.8 	 238
672.9 	 216
673.0 	 159
673.1 	 119
673.2 	 110
673.3 	 90
673.4 	 53
673.5 	 23
673.6 	 11
673.7 	 13
673.8 	 13
673.9 	 11
675.2 	 14
675.3 	 24
675.4 	 17
731.6 	 16
731.7 	 54
731.8 	 85
731.9 	 67
732.0 	 38
732.1 	 31
732.2 	 42
732.3 	 39
732.4 	 18
733.7 	 18
733.8 	 26
733.9 	 16
740.8 	 14
740.9 	 16
741.0 	 11
746.2 	 14
746.3 	 73
746.4 	 398
746.5 	 908
746.6 	 4524
746.7 	 9911
746.8 	 12866
746.9 	 8783
747.0 	 3617
747.1 	 984
747.2 	 1060
747.3 	 748
747.4 	 464
747.5 	 244
747.6 	 175
747.7 	 221
747.8 	 223
747.9 	 159
748.0 	 91
748.1 	 78
748.2 	 119
748.3 	 149
748.4 	 122
748.5 	 84
748.6 	 76
748.7 	 104
748.8 	 127
748.9 	 126
749.0 	 117
749.1 	 151
749.2 	 214
749.3 	 241
749.4 	 171
749.5 	 88
749.6 	 44
749.7 	 48
749.8 	 48
749.9 	 29
750.1 	 8
750.2 	 42
750.3 	 81
750.4 	 84
750.5 	 63
750.6 	 52
750.7 	 70
750.8 	 79
750.9 	 50
751.0 	 15
751.2 	 11
751.3 	 11
752.3 	 12
752.4 	 15
752.5 	 15
752.6 	 15
752.7 	 17
752.8 	 16
752.9 	 8
756.6 	 14
756.7 	 70
756.8 	 133
756.9 	 141
757.0 	 123
757.1 	 122
757.2 	 137
757.3 	 126
757.4 	 66
757.5 	 14
759.7 	 27
759.8 	 53
759.9 	 49
760.0 	 26
760.1 	 13
760.2 	 15
760.3 	 15
760.8 	 9
761.2 	 17
761.3 	 23
761.4 	 13
764.7 	 12
764.8 	 16
764.9 	 9
780.3 	 9
801.1 	 8
801.2 	 13
801.3 	 14
803.8 	 8
819.8 	 8
823.1 	 17
823.2 	 34
823.3 	 45
823.4 	 36
823.5 	 22
823.6 	 16
823.7 	 16
823.8 	 13
825.2 	 20
825.3 	 36
825.4 	 32
825.5 	 19
825.6 	 14
825.7 	 18
825.8 	 17
825.9 	 11
833.2 	 16
833.3 	 25
833.4 	 18
834.2 	 19
834.3 	 23
834.4 	 12
839.6 	 19
839.7 	 179
839.8 	 533
839.9 	 999
840.0 	 1399
840.1 	 1879
840.2 	 2227
840.3 	 2142
840.4 	 1325
840.5 	 596
840.6 	 260
840.7 	 251
840.8 	 172
840.9 	 104
841.0 	 54
841.1 	 29
841.2 	 28
841.3 	 23
841.4 	 15
841.7 	 21
841.8 	 36
841.9 	 30
842.0 	 17
842.1 	 11
842.2 	 16
842.3 	 18
842.4 	 15
842.5 	 12
842.6 	 19
842.7 	 35
842.8 	 52
842.9 	 54
843.0 	 46
843.1 	 37
843.2 	 36
843.3 	 36
843.4 	 26
843.5 	 11
844.2 	 15
844.3 	 23
844.4 	 20
844.5 	 12
846.7 	 11
846.8 	 12
846.9 	 9
854.7 	 8
854.8 	 14
854.9 	 10
911.6 	 13
911.7 	 16
911.8 	 15
911.9 	 13
912.0 	 13
912.1 	 11
912.2 	 8
917.0 	 9
917.1 	 15
917.2 	 22
917.3 	 23
917.4 	 15
922.7 	 8
959.8 	 19
959.9 	 36
960.0 	 47
960.1 	 88
960.2 	 150
960.3 	 194
960.4 	 156
960.5 	 98
960.6 	 69
960.7 	 70
960.8 	 59
960.9 	 33
961.0 	 16
961.1 	 11
961.2 	 14
961.3 	 12
963.2 	 8
963.3 	 12
963.8 	 9
1120.0 	 10
1120.1 	 24
1120.2 	 44
1120.3 	 64
1120.4 	 64
1120.5 	 51
1120.6 	 42
1120.7 	 44
1120.8 	 43
1120.9 	 31
1121.0 	 19
1121.1 	 14
1121.2 	 13
1121.3 	 11
1124.3 	 8
1344.4 	 8
1344.8 	 8
1344.9 	 9
1345.0 	 8
1345.1 	 10
1345.2 	 10
1345.3 	 8
